type,marker_value,duration,timestamp
phase_Meditating_cube,recording_eyes_closed,7.995616,1698668157.28761
Timestamp,EEG.AF3,EEG.F7,EEG.F3,EEG.FC5,EEG.T7,EEG.P7,EEG.O1,EEG.O2,EEG.P8,EEG.T8,EEG.FC6,EEG.F4,EEG.F8,EEG.AF4
1698668157.28761,0.0,4331.282227,4363.077148,4284.615234,4346.922852,4392.307617,4399.102539,4412.436035,4469.743652,4415.897461,4363.333496,4411.282227,4174.230957,4422.692383
1698668157.295418,0.0,4312.179688,4366.538574,4286.282227,4345.256348,4389.358887,4397.05127,4412.94873,4459.487305,4414.230957,4362.692383,4415.769043,4172.563965,4418.717773
1698668157.303226,0.0,4299.102539,4372.436035,4294.871582,4346.410156,4388.589844,4397.692383,4415.897461,4445.897461,4415.0,4365.256348,4413.974121,4168.589844,4415.384766
1698668157.311034,0.0,4313.974121,4369.615234,4300.512695,4347.179688,4390.0,4400.641113,4415.897461,4461.410156,4419.871582,4367.563965,4407.05127,4161.153809,4414.871582
1698668157.318843,0.0,4318.205078,4371.153809,4295.128418,4349.743652,4388.589844,4401.282227,4412.436035,4469.743652,4419.487305,4365.256348,4408.461426,4176.410156,4417.307617
1698668157.326651,0.0,4310.256348,4374.487305,4293.077148,4350.769043,4387.563965,4400.384766,4412.179688,4461.794922,4418.717773,4363.589844,4415.384766,4192.05127,4416.410156
1698668157.334459,0.0,4314.358887,4366.794922,4296.538574,4347.05127,4390.512695,4403.461426,4411.922852,4468.589844,4421.282227,4364.615234,4415.256348,4176.410156,4412.692383
1698668157.342267,0.0,4326.922852,4357.307617,4290.384766,4344.487305,4391.153809,4402.94873,4407.563965,4477.179688,4423.205078,4365.512695,4414.487305,4160.0,4416.025879
1698668157.350076,0.0,4323.717773,4362.692383,4283.717773,4345.512695,4390.897461,4396.153809,4410.769043,4465.0,4420.769043,4367.820313,4417.179688,4159.102539,4418.974121
1698668157.357884,0.0,4312.05127,4377.179688,4292.563965,4347.94873,4393.077148,4395.897461,4417.307617,4454.871582,4418.333496,4368.974121,4416.282227,4179.615234,4416.025879
1698668157.365692,0.0,4307.307617,4377.307617,4298.589844,4348.846191,4392.820313,4401.025879,4416.153809,4459.102539,4423.205078,4367.94873,4415.256348,4203.077148,4411.922852
1698668157.3735,0.0,4307.94873,4372.820313,4292.94873,4347.563965,4389.615234,4400.384766,4412.820313,4462.05127,4426.282227,4369.358887,4415.128418,4186.922852,4412.05127
1698668157.381308,0.0,4315.256348,4372.179688,4286.922852,4348.974121,4389.230957,4398.077148,4412.94873,4467.820313,4424.102539,4372.563965,4416.666504,4166.922852,4415.384766
1698668157.389117,0.0,4315.0,4371.538574,4286.666504,4348.974121,4389.487305,4399.102539,4415.0,4467.94873,4424.615234,4372.307617,4418.846191,4178.077148,4411.922852
1698668157.396925,0.0,4310.769043,4371.282227,4292.692383,4344.615234,4386.282227,4402.05127,4414.358887,4460.897461,4427.692383,4372.563965,4416.282227,4206.025879,4408.461426
1698668157.404733,0.0,4321.153809,4366.410156,4296.153809,4347.05127,4385.897461,4404.230957,4410.0,4469.230957,4427.692383,4373.333496,4412.563965,4202.94873,4410.256348
1698668157.412541,0.0,4322.179688,4367.820313,4293.974121,4350.897461,4389.358887,4403.333496,4411.025879,4477.94873,4425.256348,4370.897461,4411.922852,4173.205078,4410.384766
1698668157.420349,0.0,4305.769043,4378.205078,4299.358887,4348.461426,4391.282227,4400.128418,4417.179688,4469.487305,4426.538574,4370.256348,4413.205078,4182.563965,4406.410156
1698668157.428158,0.0,4306.282227,4379.487305,4305.384766,4347.307617,4390.641113,4397.307617,4415.384766,4467.94873,4424.871582,4368.077148,4408.974121,4207.692383,4402.436035
1698668157.435966,0.0,4319.230957,4370.256348,4298.717773,4348.589844,4389.871582,4399.487305,4410.769043,4482.307617,4423.717773,4368.974121,4406.282227,4180.256348,4403.974121
1698668157.443774,0.0,4321.410156,4367.94873,4298.589844,4348.333496,4389.487305,4405.128418,4412.94873,4485.897461,4426.922852,4371.538574,4409.615234,4141.922852,4408.077148
1698668157.451582,0.0,4321.025879,4370.769043,4299.871582,4349.743652,4389.358887,4406.153809,4412.436035,4480.384766,4424.871582,4368.589844,4408.077148,4156.282227,4407.820313
1698668157.459391,0.0,4314.102539,4372.820313,4293.461426,4348.974121,4392.05127,4402.179688,4410.897461,4474.615234,4423.077148,4370.0,4408.077148,4205.512695,4403.205078
1698668157.467199,0.0,4310.0,4374.615234,4295.128418,4347.563965,4393.846191,4402.179688,4413.461426,4469.230957,4420.641113,4368.589844,4410.512695,4208.974121,4401.922852
1698668157.475007,0.0,4314.615234,4372.563965,4296.410156,4349.102539,4391.794922,4405.128418,4415.128418,4473.717773,4420.384766,4366.282227,4408.077148,4182.05127,4403.333496
1698668157.482815,0.0,4310.512695,4374.102539,4291.794922,4348.846191,4390.512695,4404.230957,4414.230957,4475.128418,4423.589844,4369.871582,4406.922852,4182.563965,4399.487305
1698668157.490623,0.0,4304.615234,4376.153809,4282.307617,4346.538574,4391.282227,4401.282227,4413.717773,4470.384766,4422.05127,4366.922852,4410.384766,4198.717773,4400.512695
1698668157.498432,0.0,4307.179688,4370.769043,4274.871582,4347.563965,4389.871582,4398.974121,4411.282227,4472.436035,4422.436035,4364.743652,4412.94873,4196.538574,4403.589844
1698668157.50624,0.0,4312.436035,4369.487305,4288.589844,4348.846191,4387.94873,4401.410156,4407.563965,4475.256348,4423.589844,4367.05127,4408.333496,4178.333496,4399.358887
1698668157.514048,0.0,4312.436035,4374.487305,4300.769043,4345.384766,4390.256348,4404.615234,4412.179688,4471.922852,4421.410156,4367.692383,4404.615234,4168.846191,4395.897461
1698668157.521856,0.0,4308.077148,4379.102539,4294.102539,4346.025879,4393.589844,4403.077148,4420.0,4465.384766,4420.256348,4366.282227,4405.769043,4188.589844,4398.077148
1698668157.529665,0.0,4308.333496,4377.820313,4288.974121,4348.333496,4391.794922,4402.820313,4417.692383,4464.230957,4419.871582,4365.128418,4408.077148,4202.05127,4402.179688
1698668157.537473,0.0,4310.641113,4372.820313,4285.512695,4346.025879,4389.358887,4404.102539,4412.307617,4473.974121,4421.410156,4368.077148,4411.538574,4180.897461,4402.179688
1698668157.545281,0.0,4310.641113,4374.102539,4285.128418,4346.666504,4390.256348,4404.871582,4414.358887,4480.512695,4423.461426,4368.589844,4411.153809,4159.102539,4398.717773
1698668157.553089,0.0,4308.077148,4378.846191,4290.897461,4347.436035,4391.025879,4404.487305,4417.307617,4474.358887,4422.94873,4366.153809,4407.820313,4174.230957,4397.307617
1698668157.560897,0.0,4305.384766,4380.769043,4286.794922,4344.230957,4391.666504,4402.563965,4414.743652,4465.897461,4420.512695,4367.179688,4407.820313,4201.922852,4398.846191
1698668157.568706,0.0,4295.384766,4385.384766,4280.641113,4344.743652,4391.922852,4401.025879,4416.666504,4458.077148,4419.230957,4367.94873,4411.153809,4197.94873,4400.0
1698668157.576514,0.0,4298.846191,4387.436035,4295.641113,4350.0,4390.0,4404.230957,4421.025879,4461.922852,4417.692383,4367.05127,4405.384766,4177.436035,4398.333496
1698668157.584322,0.0,4314.102539,4376.794922,4298.333496,4350.769043,4389.615234,4406.538574,4417.307617,4475.641113,4417.179688,4367.307617,4400.0,4182.179688,4398.333496
1698668157.59213,0.0,4313.333496,4368.846191,4278.461426,4347.436035,4392.307617,4402.307617,4411.538574,4471.282227,4419.358887,4366.922852,4405.256348,4197.436035,4403.717773
1698668157.599939,0.0,4309.230957,4373.333496,4277.05127,4347.05127,4390.769043,4401.538574,4414.743652,4462.692383,4416.922852,4364.615234,4404.871582,4195.512695,4405.641113
1698668157.607747,0.0,4299.871582,4382.563965,4288.974121,4347.692383,4387.307617,4402.307617,4422.563965,4463.717773,4414.102539,4365.897461,4401.538574,4193.205078,4400.384766
1698668157.615555,0.0,4295.256348,4386.922852,4290.769043,4349.871582,4391.025879,4399.358887,4420.384766,4465.384766,4415.897461,4366.153809,4402.692383,4185.897461,4401.025879
1698668157.623363,0.0,4311.538574,4376.538574,4283.846191,4348.717773,4395.128418,4400.897461,4413.717773,4471.666504,4414.743652,4361.025879,4402.563965,4177.563965,4406.922852
1698668157.631171,0.0,4320.0,4371.538574,4285.256348,4344.615234,4393.333496,4405.0,4414.358887,4478.461426,4415.0,4363.333496,4401.025879,4186.282227,4407.692383
1698668157.63898,0.0,4306.922852,4377.820313,4285.512695,4347.307617,4392.179688,4401.666504,4418.077148,4475.256348,4415.641113,4367.05127,4401.922852,4188.077148,4407.307617
1698668157.646788,0.0,4300.897461,4377.820313,4273.077148,4349.230957,4393.333496,4398.589844,4417.179688,4470.128418,4414.743652,4362.563965,4407.05127,4183.974121,4406.025879
1698668157.654596,0.0,4304.358887,4378.205078,4273.077148,4344.743652,4391.794922,4399.487305,4416.410156,4466.025879,4416.538574,4363.333496,4408.846191,4183.205078,4404.230957
1698668157.662404,0.0,4295.769043,4385.897461,4281.025879,4342.307617,4390.769043,4398.846191,4420.769043,4457.307617,4414.743652,4368.461426,4405.641113,4173.461426,4402.179688
1698668157.670212,0.0,4297.05127,4387.05127,4281.794922,4345.641113,4392.05127,4399.102539,4421.794922,4456.282227,4412.436035,4364.743652,4405.256348,4176.538574,4404.102539
1698668157.678021,0.0,4306.025879,4375.0,4280.769043,4348.846191,4390.897461,4400.384766,4416.794922,4461.922852,4413.717773,4357.307617,4407.436035,4178.205078,4409.615234
1698668157.685829,0.0,4307.05127,4371.794922,4278.589844,4346.538574,4390.512695,4400.256348,4414.358887,4462.436035,4413.205078,4359.871582,4405.0,4171.922852,4409.871582
1698668157.693637,0.0,4309.487305,4378.717773,4282.820313,4344.358887,4392.436035,4397.307617,4415.897461,4462.563965,4413.461426,4365.0,4404.358887,4175.641113,4409.358887
1698668157.701445,0.0,4303.846191,4383.205078,4294.615234,4347.179688,4393.205078,4398.717773,4416.922852,4459.615234,4412.692383,4359.487305,4403.974121,4171.410156,4407.307617
1698668157.709254,0.0,4302.94873,4379.102539,4288.333496,4349.871582,4390.512695,4400.256348,4415.256348,4459.102539,4413.077148,4357.820313,4403.846191,4178.333496,4408.717773
1698668157.717062,0.0,4309.230957,4371.666504,4273.077148,4346.922852,4387.820313,4395.128418,4413.974121,4462.692383,4415.769043,4364.102539,4406.666504,4185.384766,4413.589844
1698668157.72487,0.0,4307.179688,4379.358887,4279.743652,4347.94873,4390.769043,4400.641113,4415.128418,4459.230957,4414.102539,4362.692383,4402.179688,4172.307617,4410.897461
1698668157.732678,0.0,4312.94873,4375.769043,4283.461426,4349.743652,4390.384766,4403.333496,4415.128418,4460.769043,4414.871582,4361.153809,4400.512695,4175.512695,4412.05127
1698668157.740487,0.0,4318.974121,4367.563965,4272.94873,4347.307617,4389.358887,4397.820313,4415.256348,4458.717773,4416.410156,4362.94873,4404.230957,4182.179688,4414.487305
1698668157.748295,0.0,4310.897461,4382.307617,4280.128418,4345.897461,4392.563965,4403.461426,4420.0,4452.307617,4413.077148,4362.05127,4401.794922,4173.717773,4412.179688
1698668157.756103,0.0,4309.615234,4386.666504,4294.615234,4345.256348,4391.794922,4402.179688,4420.256348,4457.436035,4412.94873,4361.922852,4403.461426,4159.102539,4411.153809
1698668157.763911,0.0,4313.589844,4379.871582,4290.384766,4347.94873,4388.333496,4397.179688,4414.230957,4457.94873,4412.94873,4360.256348,4403.333496,4155.641113,4408.846191
1698668157.771719,0.0,4316.025879,4377.436035,4285.0,4349.871582,4387.692383,4401.410156,4413.205078,4460.769043,4414.102539,4360.0,4400.769043,4169.102539,4411.922852
1698668157.779528,0.0,4314.102539,4378.205078,4288.077148,4347.820313,4390.769043,4400.384766,4415.641113,4460.512695,4412.692383,4360.641113,4403.974121,4170.512695,4414.615234
1698668157.787336,0.0,4301.410156,4381.794922,4288.077148,4346.666504,4394.230957,4399.487305,4416.153809,4446.538574,4409.358887,4360.384766,4405.769043,4168.589844,4411.282227
1698668157.795144,0.0,4305.769043,4373.974121,4285.769043,4346.794922,4391.153809,4399.230957,4414.871582,4450.897461,4415.256348,4362.05127,4405.256348,4170.128418,4411.410156
1698668157.802952,0.0,4313.077148,4370.769043,4283.461426,4348.461426,4389.102539,4397.307617,4414.358887,4458.205078,4416.025879,4361.153809,4404.743652,4162.05127,4412.307617
1698668157.81076,0.0,4306.922852,4378.717773,4285.128418,4350.897461,4391.922852,4399.743652,4417.436035,4455.384766,4411.794922,4362.179688,4403.589844,4157.179688,4412.179688
1698668157.818569,0.0,4314.615234,4376.794922,4290.897461,4350.897461,4390.897461,4401.794922,4418.333496,4458.077148,4413.717773,4364.487305,4401.922852,4163.974121,4413.974121
1698668157.826377,0.0,4317.307617,4373.974121,4289.487305,4347.307617,4388.974121,4397.05127,4415.0,4459.102539,4413.589844,4364.487305,4402.05127,4169.615234,4414.358887
1698668157.834185,0.0,4312.692383,4377.307617,4288.846191,4346.538574,4391.538574,4394.871582,4415.0,4459.871582,4412.179688,4365.0,4402.692383,4170.641113,4413.461426
1698668157.841993,0.0,4318.077148,4375.384766,4292.820313,4348.974121,4393.974121,4399.230957,4417.05127,4458.974121,4412.436035,4361.794922,4400.897461,4178.205078,4414.615234
1698668157.849801,0.0,4315.128418,4371.794922,4288.974121,4347.94873,4394.358887,4397.436035,4417.563965,4454.358887,4411.025879,4360.384766,4404.871582,4177.436035,4415.641113
1698668157.85761,0.0,4305.769043,4372.692383,4287.307617,4345.641113,4392.179688,4392.307617,4416.666504,4450.0,4408.717773,4361.153809,4413.589844,4174.743652,4413.077148
1698668157.865418,0.0,4306.666504,4375.0,4291.282227,4345.897461,4388.077148,4394.615234,4414.743652,4443.461426,4411.410156,4363.717773,4413.333496,4182.179688,4417.05127
1698668157.873226,0.0,4318.077148,4371.922852,4292.436035,4345.897461,4388.077148,4400.897461,4412.307617,4445.0,4411.794922,4363.974121,4406.025879,4181.282227,4419.615234
1698668157.881034,0.0,4323.461426,4362.436035,4289.871582,4344.102539,4390.641113,4397.436035,4409.102539,4456.282227,4404.487305,4358.589844,4405.769043,4178.974121,4416.666504
1698668157.888843,0.0,4316.538574,4365.769043,4288.717773,4344.871582,4391.538574,4393.717773,4410.0,4453.333496,4403.333496,4359.487305,4410.897461,4157.05127,4417.94873
1698668157.896651,0.0,4315.0,4372.563965,4297.692383,4346.538574,4391.666504,4402.820313,4414.358887,4444.743652,4408.974121,4359.743652,4411.282227,4162.820313,4416.538574
1698668157.904459,0.0,4320.897461,4368.846191,4302.563965,4346.538574,4391.025879,4405.512695,4414.487305,4451.666504,4411.025879,4357.94873,4408.974121,4211.282227,4418.205078
1698668157.912267,0.0,4312.820313,4373.846191,4296.282227,4346.794922,4390.128418,4397.563965,4413.333496,4449.358887,4408.333496,4361.922852,4411.410156,4203.205078,4420.769043
1698668157.920076,0.0,4310.512695,4376.538574,4291.153809,4348.717773,4389.102539,4394.487305,4413.461426,4447.436035,4409.102539,4364.358887,4416.666504,4144.871582,4416.922852
1698668157.927884,0.0,4322.94873,4367.436035,4290.384766,4349.358887,4389.487305,4396.538574,4413.974121,4458.846191,4413.974121,4363.077148,4418.205078,4112.692383,4417.179688
1698668157.935692,0.0,4320.769043,4368.461426,4295.641113,4347.820313,4391.282227,4402.820313,4413.461426,4456.794922,4411.922852,4362.692383,4412.820313,4161.025879,4418.846191
1698668157.9435,0.0,4316.922852,4373.846191,4301.025879,4347.179688,4389.871582,4404.358887,4414.487305,4455.897461,4414.102539,4367.05127,4408.461426,4243.589844,4419.358887
1698668157.951308,0.0,4321.538574,4370.0,4293.461426,4347.563965,4388.717773,4397.94873,4416.538574,4463.333496,4417.436035,4365.384766,4411.282227,4235.128418,4420.256348
1698668157.959117,0.0,4321.538574,4369.871582,4285.897461,4348.077148,4391.538574,4397.94873,4413.589844,4460.512695,4414.358887,4361.538574,4417.563965,4142.179688,4420.641113
1698668157.966925,0.0,4321.025879,4369.615234,4288.846191,4346.025879,4391.153809,4403.846191,4412.692383,4462.563965,4419.487305,4366.538574,4419.871582,4090.897461,4417.179688
1698668157.974733,0.0,4316.538574,4370.0,4290.512695,4343.717773,4388.461426,4402.179688,4414.102539,4465.641113,4420.897461,4366.922852,4418.077148,4167.307617,4416.538574
1698668157.982541,0.0,4310.641113,4375.256348,4295.512695,4346.666504,4390.0,4398.461426,4412.563965,4460.512695,4415.641113,4367.692383,4416.025879,4272.436035,4415.897461
1698668157.990349,0.0,4315.512695,4371.922852,4299.487305,4348.974121,4391.410156,4404.102539,4412.179688,4464.743652,4415.384766,4371.538574,4412.692383,4251.666504,4412.563965
1698668157.998158,0.0,4317.179688,4369.743652,4296.922852,4348.077148,4389.871582,4405.128418,4413.717773,4468.461426,4419.487305,4369.230957,4414.230957,4143.461426,4414.358887
1698668158.005966,0.0,4307.563965,4377.179688,4295.897461,4346.153809,4390.512695,4397.307617,4414.102539,4463.717773,4427.94873,4369.230957,4419.358887,4088.974365,4412.820313
1698668158.013774,0.0,4302.307617,4381.666504,4290.384766,4346.666504,4391.922852,4394.487305,4414.358887,4463.205078,4428.717773,4371.025879,4419.487305,4157.94873,4408.333496
1698668158.021582,0.0,4307.05127,4376.282227,4285.769043,4348.205078,4390.769043,4397.307617,4416.410156,4470.769043,4423.846191,4370.512695,4418.846191,4255.512695,4409.230957
1698668158.02939,0.0,4312.307617,4372.05127,4288.717773,4345.897461,4390.256348,4400.0,4414.487305,4476.666504,4423.974121,4370.128418,4417.05127,4248.333496,4408.974121
1698668158.037199,0.0,4314.615234,4375.256348,4295.769043,4345.384766,4389.871582,4400.769043,4412.563965,4478.205078,4425.769043,4371.153809,4416.794922,4166.794922,4408.333496
1698668158.045007,0.0,4313.717773,4376.538574,4297.94873,4346.666504,4390.769043,4401.794922,4415.897461,4476.922852,4423.717773,4370.128418,4415.897461,4117.307617,4407.692383
1698668158.052815,0.0,4310.769043,4374.102539,4288.589844,4345.256348,4393.717773,4401.025879,4416.410156,4474.871582,4423.205078,4368.461426,4413.717773,4153.846191,4405.897461
1698668158.060624,0.0,4302.436035,4372.692383,4283.974121,4343.589844,4393.846191,4396.282227,4413.589844,4473.461426,4426.666504,4370.512695,4419.615234,4225.384766,4405.769043
1698668158.068432,0.0,4300.256348,4377.436035,4286.794922,4345.0,4390.897461,4398.717773,4413.846191,4470.641113,4423.205078,4369.230957,4418.461426,4236.410156,4404.871582
1698668158.07624,0.0,4310.897461,4375.769043,4284.487305,4346.666504,4388.461426,4405.0,4412.94873,4476.666504,4422.307617,4369.743652,4411.794922,4181.025879,4405.384766
1698668158.084048,0.0,4314.615234,4368.717773,4279.487305,4345.256348,4388.589844,4403.333496,4411.282227,4483.461426,4425.769043,4370.128418,4414.743652,4143.589844,4408.205078
1698668158.091856,0.0,4306.538574,4372.307617,4280.256348,4344.102539,4391.153809,4397.94873,4415.128418,4474.871582,4421.025879,4366.153809,4415.128418,4165.641113,4405.384766
1698668158.099665,0.0,4303.717773,4377.563965,4283.333496,4344.102539,4392.94873,4397.05127,4416.025879,4469.230957,4421.282227,4370.512695,4413.333496,4211.025879,4403.974121
1698668158.107473,0.0,4307.563965,4375.256348,4282.563965,4343.846191,4391.922852,4398.846191,4412.05127,4473.974121,4424.487305,4369.615234,4414.871582,4223.846191,4406.922852
1698668158.115281,0.0,4309.743652,4369.102539,4283.846191,4343.461426,4390.897461,4403.333496,4413.461426,4477.820313,4423.205078,4364.358887,4414.358887,4190.384766,4406.025879
1698668158.123089,0.0,4313.717773,4369.743652,4291.025879,4346.538574,4392.692383,4405.769043,4415.769043,4476.410156,4421.282227,4367.436035,4412.436035,4165.256348,4404.487305
1698668158.130897,0.0,4312.05127,4380.769043,4289.743652,4348.589844,4393.077148,4403.205078,4417.94873,4474.871582,4420.128418,4366.153809,4412.692383,4174.102539,4404.743652
1698668158.138706,0.0,4303.205078,4386.538574,4281.282227,4346.282227,4391.282227,4402.436035,4419.487305,4475.384766,4421.282227,4365.128418,4414.743652,4200.512695,4404.230957
1698668158.146514,0.0,4298.077148,4382.05127,4281.794922,4346.922852,4391.025879,4405.0,4418.717773,4473.333496,4419.487305,4367.179688,4415.128418,4201.538574,4402.692383
1698668158.154322,0.0,4298.333496,4378.205078,4285.0,4347.563965,4392.563965,4402.820313,4418.717773,4469.230957,4418.077148,4367.179688,4412.563965,4175.256348,4399.487305
1698668158.16213,0.0,4298.717773,4379.487305,4282.692383,4346.282227,4392.307617,4398.205078,4418.205078,4466.666504,4420.0,4368.077148,4411.153809,4180.256348,4400.512695
1698668158.169938,0.0,4295.128418,4382.692383,4283.333496,4346.794922,4391.153809,4399.102539,4416.025879,4466.666504,4419.615234,4366.666504,4409.615234,4195.897461,4405.256348
1698668158.177747,0.0,4300.769043,4381.153809,4283.333496,4347.94873,4391.153809,4401.153809,4414.102539,4471.794922,4420.384766,4365.128418,4409.358887,4188.974121,4403.589844
1698668158.185555,0.0,4306.153809,4380.384766,4282.563965,4345.897461,4391.410156,4400.128418,4417.563965,4477.05127,4422.563965,4367.179688,4410.128418,4184.743652,4402.563965
1698668158.193363,0.0,4307.820313,4382.692383,4284.615234,4344.358887,4394.615234,4400.769043,4419.871582,4476.922852,4420.897461,4367.94873,4405.128418,4178.077148,4405.769043
1698668158.201171,0.0,4311.153809,4377.179688,4279.358887,4348.333496,4394.230957,4400.256348,4415.512695,4476.282227,4416.922852,4366.410156,4403.717773,4171.666504,4407.05127
1698668158.208979,0.0,4305.0,4376.410156,4276.666504,4349.487305,4389.743652,4399.358887,4414.358887,4473.974121,4416.666504,4366.538574,4409.871582,4182.94873,4405.769043
1698668158.216788,0.0,4297.563965,4390.128418,4295.0,4347.05127,4392.692383,4401.282227,4417.692383,4468.589844,4417.692383,4367.05127,4408.974121,4185.128418,4399.358887
1698668158.224596,0.0,4305.0,4388.205078,4303.333496,4347.692383,4396.666504,4402.307617,4417.05127,4470.769043,4420.769043,4366.282227,4404.487305,4174.871582,4398.589844
1698668158.232404,0.0,4318.205078,4371.538574,4286.922852,4349.487305,4393.461426,4402.563965,4413.077148,4474.871582,4422.563965,4367.179688,4400.897461,4179.487305,4407.179688
1698668158.240213,0.0,4309.615234,4373.589844,4282.563965,4348.205078,4390.897461,4400.769043,4415.769043,4466.794922,4417.692383,4368.461426,4402.820313,4175.897461,4407.307617
1698668158.248021,0.0,4291.153809,4385.0,4286.410156,4344.743652,4392.05127,4396.153809,4422.179688,4460.641113,4415.897461,4368.717773,4407.563965,4171.666504,4401.282227
1698668158.255829,0.0,4299.487305,4384.358887,4291.282227,4344.871582,4391.410156,4397.05127,4419.743652,4461.922852,4415.512695,4365.897461,4403.077148,4172.692383,4401.666504
1698668158.263637,0.0,4315.384766,4376.666504,4296.282227,4347.94873,4390.897461,4400.256348,4413.333496,4463.974121,4415.384766,4364.743652,4398.846191,4168.077148,4404.358887
1698668158.271445,0.0,4311.153809,4373.461426,4284.230957,4348.974121,4391.282227,4397.692383,4414.230957,4463.846191,4417.692383,4367.05127,4404.615234,4176.538574,4407.692383
1698668158.279254,0.0,4310.384766,4370.897461,4276.025879,4350.769043,4389.358887,4398.077148,4417.94873,4463.333496,4416.922852,4365.0,4405.128418,4180.384766,4412.307617
1698668158.287062,0.0,4320.769043,4369.615234,4285.384766,4350.128418,4390.512695,4403.461426,4416.410156,4465.0,4417.692383,4363.974121,4398.974121,4174.871582,4412.05127
1698668158.29487,0.0,4321.153809,4373.589844,4292.820313,4346.794922,4391.410156,4404.743652,4413.589844,4463.205078,4417.94873,4365.128418,4399.230957,4167.94873,4408.589844
1698668158.302678,0.0,4316.282227,4374.102539,4288.333496,4348.077148,4388.333496,4401.922852,4413.461426,4462.692383,4416.794922,4364.487305,4403.589844,4162.436035,4408.461426
1698668158.310486,0.0,4318.974121,4370.512695,4278.974121,4350.641113,4388.461426,4401.410156,4414.487305,4463.077148,4417.05127,4361.153809,4406.025879,4177.692383,4413.077148
1698668158.318295,0.0,4317.94873,4371.025879,4279.871582,4351.025879,4391.922852,4400.641113,4415.128418,4456.794922,4412.692383,4358.333496,4408.846191,4181.538574,4416.922852
1698668158.326103,0.0,4311.153809,4377.563965,4293.077148,4349.743652,4393.974121,4402.94873,4414.230957,4455.897461,4412.05127,4365.384766,4406.794922,4170.384766,4413.205078
1698668158.333911,0.0,4314.487305,4377.179688,4295.512695,4347.94873,4393.461426,4407.563965,4414.358887,4461.922852,4414.615234,4365.897461,4405.0,4169.487305,4410.769043
1698668158.341719,0.0,4317.563965,4373.974121,4285.769043,4350.128418,4391.666504,4402.94873,4413.846191,4461.282227,4410.256348,4359.615234,4407.436035,4167.436035,4412.436035
1698668158.349527,0.0,4317.179688,4377.436035,4289.358887,4352.307617,4391.025879,4398.333496,4413.333496,4462.179688,4408.846191,4362.179688,4405.641113,4165.512695,4414.230957
1698668158.357336,0.0,4317.436035,4375.641113,4296.282227,4349.615234,4391.922852,4397.563965,4416.794922,4461.922852,4410.256348,4363.589844,4404.615234,4169.358887,4415.512695
1698668158.365144,0.0,4305.384766,4377.563965,4291.153809,4347.692383,4395.384766,4396.282227,4417.436035,4450.256348,4410.0,4364.230957,4407.692383,4164.358887,4414.871582
1698668158.372952,0.0,4304.358887,4378.461426,4289.615234,4348.205078,4396.282227,4396.794922,4414.871582,4447.179688,4407.820313,4363.461426,4408.974121,4153.717773,4412.94873
1698668158.38076,0.0,4319.743652,4371.666504,4290.769043,4347.94873,4390.769043,4396.922852,4415.512695,4455.384766,4402.436035,4357.179688,4408.333496,4175.256348,4414.487305
1698668158.388569,0.0,4314.102539,4375.897461,4286.410156,4347.05127,4387.692383,4397.179688,4418.077148,4454.102539,4403.333496,4357.05127,4411.410156,4195.641113,4420.128418
1698668158.396377,0.0,4309.230957,4375.128418,4292.563965,4347.820313,4391.922852,4394.743652,4416.410156,4450.384766,4405.769043,4360.897461,4417.179688,4157.94873,4415.641113
1698668158.404185,0.0,4321.025879,4358.205078,4301.025879,4352.05127,4391.410156,4390.256348,4411.025879,4459.615234,4408.077148,4361.794922,4419.487305,4176.922852,4410.384766
1698668158.411993,0.0,4317.307617,4355.897461,4299.871582,4355.512695,4386.153809,4387.94873,4409.615234,4471.282227,4423.333496,4372.307617,4412.94873,4241.153809,4413.846191
1698668158.419802,0.0,4300.512695,4375.256348,4290.897461,4353.717773,4387.05127,4391.922852,4411.410156,4470.897461,4442.179688,4386.282227,4401.025879,4244.871582,4412.692383
1698668158.42761,0.0,4300.384766,4375.641113,4281.282227,4349.358887,4390.128418,4397.436035,4416.025879,4468.589844,4442.820313,4384.615234,4400.897461,4229.871582,4406.410156
1698668158.435418,0.0,4307.179688,4367.05127,4286.025879,4348.846191,4391.794922,4397.563965,4416.282227,4473.333496,4441.282227,4382.307617,4406.410156,4230.128418,4400.256348
1698668158.443226,0.0,4307.307617,4376.922852,4288.846191,4350.769043,4393.333496,4397.820313,4413.717773,4474.871582,4445.897461,4385.769043,4400.256348,4232.436035,4401.025879
1698668158.451034,0.0,4310.897461,4372.436035,4283.205078,4351.666504,4391.153809,4399.102539,4417.05127,4476.153809,4440.641113,4382.94873,4397.179688,4228.846191,4402.179688
1698668158.458843,0.0,4313.717773,4363.077148,4287.05127,4349.871582,4391.153809,4399.230957,4414.487305,4477.436035,4438.974121,4383.205078,4400.769043,4223.717773,4401.538574
1698668158.466651,0.0,4310.512695,4372.692383,4285.0,4344.102539,4393.717773,4397.94873,4411.666504,4473.846191,4441.153809,4382.94873,4400.641113,4215.256348,4403.333496
1698668158.474459,0.0,4309.358887,4377.820313,4284.230957,4346.538574,4391.153809,4395.897461,4416.922852,4469.102539,4436.794922,4380.769043,4400.128418,4219.102539,4400.769043
1698668158.482267,0.0,4313.846191,4372.563965,4288.589844,4352.94873,4392.179688,4398.589844,4418.077148,4470.0,4436.153809,4381.794922,4398.077148,4249.358887,4400.0
1698668158.490075,0.0,4314.358887,4368.974121,4282.820313,4348.461426,4394.743652,4402.05127,4417.179688,4479.102539,4436.282227,4377.820313,4395.0,4245.769043,4400.641113
1698668158.497884,0.0,4310.512695,4371.153809,4287.05127,4348.333496,4389.743652,4398.333496,4415.897461,4474.230957,4430.0,4373.461426,4398.717773,4223.205078,4402.05127
1698668158.505692,0.0,4307.179688,4378.589844,4293.333496,4351.153809,4391.538574,4397.692383,4413.589844,4462.820313,4430.641113,4377.05127,4396.538574,4206.282227,4404.615234
1698668158.5135,0.0,4312.692383,4378.717773,4293.077148,4349.358887,4395.256348,4400.128418,4417.307617,4466.282227,4433.333496,4378.589844,4391.410156,4205.384766,4399.743652
1698668158.521308,0.0,4312.692383,4376.025879,4294.358887,4350.512695,4392.692383,4399.871582,4420.0,4467.563965,4428.205078,4372.307617,4399.743652,4254.102539,4399.871582
1698668158.529117,0.0,4303.846191,4373.333496,4281.282227,4345.769043,4391.794922,4400.128418,4418.333496,4470.128418,4429.358887,4371.538574,4402.436035,4259.615234,4405.897461
1698668158.536925,0.0,4311.666504,4367.692383,4283.205078,4345.384766,4391.410156,4393.717773,4415.128418,4468.974121,4425.769043,4370.512695,4399.358887,4223.077148,4403.717773
1698668158.544733,0.0,4307.307617,4383.333496,4291.410156,4348.589844,4391.666504,4396.153809,4416.922852,4463.589844,4423.717773,4370.641113,4398.974121,4212.820313,4405.512695
1698668158.552541,0.0,4303.974121,4378.077148,4275.384766,4345.128418,4390.256348,4401.153809,4418.205078,4475.897461,4429.615234,4373.333496,4399.358887,4220.128418,4403.461426
1698668158.560349,0.0,4320.128418,4366.153809,4279.102539,4347.05127,4390.641113,4398.974121,4410.641113,4472.563965,4420.128418,4365.256348,4407.692383,4260.897461,4405.641113
1698668158.568158,0.0,4316.538574,4382.179688,4291.410156,4341.410156,4395.0,4404.230957,4417.820313,4462.563965,4417.307617,4362.94873,4412.179688,4251.666504,4420.0
1698668158.575966,0.0,4308.333496,4373.333496,4288.589844,4337.94873,4393.461426,4401.282227,4424.743652,4477.05127,4423.077148,4369.358887,4410.769043,4212.307617,4406.538574
1698668158.583774,0.0,4305.641113,4377.179688,4281.153809,4342.05127,4393.333496,4403.077148,4420.256348,4473.205078,4414.487305,4363.205078,4410.0,4216.153809,4403.589844
1698668158.591582,0.0,4322.179688,4384.487305,4286.410156,4337.307617,4394.487305,4409.358887,4425.256348,4456.025879,4398.589844,4348.589844,4404.358887,4194.230957,4415.769043
1698668158.599391,0.0,4339.743652,4380.0,4312.05127,4340.512695,4392.692383,4403.333496,4420.769043,4452.179688,4381.410156,4341.922852,4401.025879,4199.358887,4404.358887
1698668158.607199,0.0,4318.974121,4392.563965,4301.794922,4344.871582,4393.717773,4408.846191,4417.563965,4459.358887,4378.974121,4345.384766,4406.410156,4241.410156,4405.641113
1698668158.615007,0.0,4314.615234,4376.282227,4283.589844,4345.128418,4391.794922,4405.897461,4420.128418,4460.384766,4380.769043,4343.974121,4416.538574,4228.589844,4403.846191
1698668158.622815,0.0,4314.358887,4382.436035,4297.179688,4344.743652,4390.641113,4399.230957,4417.94873,4442.05127,4374.102539,4338.077148,4420.384766,4219.743652,4401.922852
1698668158.630623,0.0,4303.461426,4393.077148,4302.692383,4342.179688,4392.563965,4405.384766,4421.410156,4448.077148,4380.769043,4343.205078,4419.615234,4238.974121,4403.333496
1698668158.638432,0.0,4319.743652,4369.743652,4301.538574,4348.846191,4391.922852,4400.512695,4414.743652,4464.871582,4386.282227,4349.487305,4421.538574,4237.563965,4399.871582
1698668158.64624,0.0,4322.692383,4382.563965,4292.563965,4350.256348,4392.692383,4399.871582,4411.282227,4459.102539,4382.820313,4344.230957,4417.05127,4225.256348,4417.563965
1698668158.654048,0.0,4313.717773,4381.282227,4289.743652,4348.717773,4391.153809,4404.487305,4417.692383,4458.846191,4387.436035,4346.282227,4412.820313,4225.256348,4405.897461
1698668158.661856,0.0,4308.461426,4371.794922,4290.0,4348.077148,4388.205078,4397.94873,4413.333496,4459.871582,4396.153809,4353.846191,4421.666504,4255.897461,4400.128418
1698668158.669665,0.0,4312.436035,4384.230957,4277.94873,4344.358887,4391.153809,4401.025879,4412.94873,4452.692383,4394.487305,4348.333496,4418.077148,4258.205078,4416.922852
1698668158.677473,0.0,4319.102539,4379.102539,4282.05127,4350.641113,4391.794922,4407.179688,4419.102539,4449.487305,4390.0,4345.512695,4410.256348,4232.820313,4403.333496
1698668158.685281,0.0,4298.077148,4385.384766,4290.512695,4350.512695,4388.205078,4398.589844,4417.05127,4452.692383,4403.077148,4359.230957,4425.512695,4245.641113,4417.94873
1698668158.693089,0.0,4295.128418,4392.94873,4290.128418,4348.461426,4389.615234,4399.487305,4412.94873,4451.794922,4400.128418,4358.717773,4421.922852,4251.922852,4420.512695
1698668158.700897,0.0,4315.0,4378.461426,4293.333496,4350.128418,4390.384766,4405.512695,4413.461426,4462.05127,4396.922852,4360.128418,4411.538574,4243.077148,4405.641113
1698668158.708706,0.0,4311.922852,4377.563965,4296.282227,4347.563965,4390.512695,4402.179688,4415.641113,4470.641113,4412.692383,4372.05127,4419.487305,4243.717773,4417.179688
1698668158.716514,0.0,4303.077148,4388.846191,4295.128418,4350.641113,4395.0,4403.974121,4415.641113,4455.128418,4405.128418,4361.282227,4421.922852,4240.128418,4413.974121
1698668158.724322,0.0,4309.743652,4369.487305,4283.589844,4349.871582,4391.538574,4396.538574,4412.692383,4468.717773,4409.871582,4365.128418,4420.512695,4240.256348,4415.512695
1698668158.73213,0.0,4302.94873,4375.256348,4277.179688,4348.589844,4390.897461,4397.94873,4417.05127,4472.563965,4409.102539,4362.563965,4408.589844,4243.846191,4406.666504
1698668158.739938,0.0,4298.461426,4393.589844,4288.205078,4351.025879,4393.461426,4406.153809,4421.538574,4452.436035,4396.025879,4350.128418,4413.589844,4237.307617,4403.077148
1698668158.747747,0.0,4309.615234,4370.641113,4285.897461,4348.717773,4387.820313,4396.282227,4414.615234,4459.871582,4408.205078,4360.897461,4419.487305,4239.743652,4413.589844
1698668158.755555,0.0,4301.410156,4382.05127,4281.410156,4350.128418,4391.538574,4400.256348,4411.282227,4462.436035,4402.563965,4353.205078,4404.743652,4239.871582,4405.641113
1698668158.763363,0.0,4305.256348,4378.589844,4292.692383,4351.538574,4391.025879,4401.153809,4411.538574,4469.230957,4406.666504,4354.358887,4414.102539,4235.512695,4417.179688
1698668158.771171,0.0,4317.307617,4365.128418,4288.333496,4348.846191,4387.692383,4396.922852,4412.436035,4463.205078,4414.871582,4360.384766,4415.0,4239.102539,4420.256348
1698668158.77898,0.0,4307.563965,4384.615234,4283.846191,4350.512695,4393.205078,4402.692383,4417.436035,4452.05127,4407.94873,4356.025879,4408.205078,4230.128418,4409.102539
1698668158.786788,0.0,4298.717773,4373.077148,4289.615234,4351.666504,4390.128418,4395.0,4415.769043,4464.230957,4415.384766,4366.282227,4416.666504,4225.641113,4416.922852
1698668158.794596,0.0,4294.102539,4377.05127,4285.897461,4349.487305,4391.922852,4396.666504,4412.05127,4452.436035,4410.384766,4362.05127,4414.487305,4240.128418,4423.461426
1698668158.802404,0.0,4306.666504,4380.897461,4290.512695,4348.461426,4393.461426,4399.358887,4412.179688,4457.820313,4412.563965,4362.436035,4415.641113,4236.282227,4420.256348
1698668158.810212,0.0,4310.128418,4370.384766,4293.717773,4345.384766,4388.846191,4397.820313,4414.230957,4474.358887,4423.846191,4369.230957,4413.846191,4211.538574,4414.358887
1698668158.818021,0.0,4298.846191,4377.692383,4281.794922,4346.282227,4392.179688,4402.05127,4414.615234,4465.897461,4421.282227,4364.615234,4410.256348,4226.666504,4418.846191
1698668158.825829,0.0,4303.846191,4367.820313,4279.615234,4350.0,4392.692383,4396.153809,4413.077148,4471.922852,4423.333496,4370.256348,4418.077148,4254.615234,4417.436035
1698668158.833637,0.0,4303.461426,4372.307617,4286.410156,4347.05127,4392.307617,4398.077148,4414.487305,4474.358887,4425.641113,4373.205078,4417.05127,4235.897461,4411.666504
1698668158.841445,0.0,4304.743652,4381.538574,4295.0,4347.179688,4392.05127,4402.563965,4413.717773,4467.179688,4426.538574,4369.615234,4411.922852,4214.358887,4413.974121
1698668158.849254,0.0,4312.05127,4370.256348,4291.538574,4348.974121,4389.358887,4397.692383,4412.179688,4471.410156,4423.077148,4366.666504,4407.436035,4220.897461,4408.846191
1698668158.857062,0.0,4313.974121,4372.179688,4279.230957,4346.794922,4388.077148,4399.487305,4416.025879,4478.333496,4422.436035,4368.461426,4406.410156,4239.743652,4410.897461
1698668158.86487,0.0,4316.794922,4370.769043,4283.461426,4347.692383,4387.94873,4400.769043,4416.410156,4477.307617,4422.820313,4371.282227,4410.256348,4242.94873,4413.461426
1698668158.872678,0.0,4310.0,4367.820313,4287.692383,4346.922852,4393.077148,4399.230957,4413.589844,4472.563965,4415.897461,4364.743652,4404.871582,4232.179688,4407.05127
1698668158.880486,0.0,4307.307617,4374.743652,4288.333496,4346.538574,4394.487305,4398.717773,4416.025879,4471.410156,4421.025879,4366.410156,4403.333496,4241.922852,4406.922852
1698668158.888295,0.0,4315.384766,4374.615234,4291.025879,4349.743652,4390.641113,4401.025879,4418.589844,4466.922852,4423.717773,4367.820313,4405.0,4233.205078,4406.794922
1698668158.896103,0.0,4312.179688,4370.512695,4284.487305,4348.205078,4391.794922,4402.307617,4418.589844,4471.922852,4421.282227,4365.128418,4399.487305,4221.282227,4405.512695
1698668158.903911,0.0,4300.512695,4372.436035,4281.922852,4348.333496,4392.307617,4395.0,4416.794922,4470.641113,4424.230957,4369.487305,4403.205078,4255.641113,4408.589844
1698668158.911719,0.0,4292.436035,4376.922852,4280.256348,4349.358887,4391.025879,4393.205078,4416.666504,4457.307617,4421.666504,4369.743652,4410.512695,4265.0,4405.641113
1698668158.919527,0.0,4299.615234,4375.769043,4281.666504,4347.692383,4392.820313,4398.846191,4418.974121,4463.333496,4419.358887,4368.846191,4407.94873,4231.922852,4399.615234
1698668158.927336,0.0,4312.436035,4372.05127,4292.179688,4349.358887,4393.846191,4400.128418,4417.307617,4471.922852,4420.384766,4366.666504,4401.153809,4190.641113,4403.205078
1698668158.935144,0.0,4311.410156,4370.0,4289.230957,4348.717773,4391.153809,4401.794922,4418.974121,4469.615234,4421.282227,4365.512695,4397.820313,4222.05127,4400.769043
1698668158.942952,0.0,4306.794922,4370.128418,4286.410156,4349.487305,4387.94873,4398.717773,4415.512695,4466.666504,4422.436035,4368.846191,4404.615234,4305.641113,4401.538574
1698668158.95076,0.0,4309.615234,4370.769043,4289.743652,4349.743652,4390.384766,4398.589844,4413.333496,4468.717773,4420.769043,4367.692383,4404.871582,4294.487305,4405.769043
1698668158.958569,0.0,4318.974121,4372.436035,4289.615234,4346.794922,4395.256348,4406.025879,4419.230957,4470.897461,4419.230957,4366.410156,4397.563965,4191.666504,4400.384766
1698668158.966377,0.0,4319.743652,4377.05127,4289.358887,4350.641113,4393.717773,4402.307617,4414.230957,4464.487305,4421.410156,4367.05127,4401.922852,4152.05127,4402.436035
1698668158.974185,0.0,4311.794922,4372.436035,4282.05127,4349.358887,4390.512695,4399.230957,4413.589844,4463.205078,4418.205078,4363.974121,4402.563965,4232.307617,4403.205078
1698668158.981993,0.0,4315.769043,4369.230957,4281.794922,4347.307617,4390.641113,4401.794922,4416.922852,4462.820313,4415.128418,4366.025879,4401.794922,4308.974121,4401.794922
1698668158.989802,0.0,4313.717773,4375.0,4288.846191,4346.922852,4391.538574,4401.410156,4413.077148,4454.102539,4416.538574,4368.846191,4403.846191,4275.128418,4403.974121
1698668158.99761,0.0,4312.05127,4372.94873,4289.615234,4345.0,4392.692383,4402.94873,4414.102539,4456.282227,4414.743652,4363.589844,4396.922852,4217.692383,4406.538574
1698668159.005418,0.0,4322.436035,4371.410156,4293.717773,4352.05127,4394.102539,4400.512695,4413.589844,4462.436035,4419.102539,4364.487305,4398.205078,4201.025879,4409.871582
1698668159.013226,0.0,4320.769043,4370.769043,4288.974121,4347.436035,4395.512695,4398.846191,4416.282227,4457.436035,4418.077148,4365.128418,4404.358887,4232.436035,4408.333496
1698668159.021034,0.0,4321.025879,4374.743652,4289.871582,4344.871582,4394.871582,4400.384766,4416.025879,4452.563965,4410.128418,4360.641113,4404.871582,4279.230957,4410.384766
1698668159.028843,0.0,4324.102539,4373.717773,4293.461426,4353.717773,4393.205078,4401.153809,4410.512695,4458.205078,4415.769043,4360.512695,4403.717773,4282.94873,4411.538574
1698668159.036651,0.0,4311.922852,4368.333496,4281.666504,4346.410156,4392.563965,4401.794922,4417.692383,4459.487305,4418.589844,4357.436035,4401.922852,4227.436035,4409.358887
1698668159.044459,0.0,4305.256348,4387.692383,4295.256348,4350.128418,4391.922852,4397.692383,4417.179688,4440.256348,4409.871582,4359.615234,4408.333496,4187.563965,4412.820313
1698668159.052267,0.0,4312.05127,4385.256348,4296.025879,4353.333496,4392.05127,4398.333496,4411.922852,4444.230957,4409.743652,4364.743652,4408.717773,4227.179688,4415.128418
1698668159.060075,0.0,4327.179688,4366.538574,4282.05127,4344.230957,4393.589844,4406.153809,4415.897461,4469.102539,4413.974121,4357.820313,4400.256348,4260.897461,4418.333496
1698668159.067884,0.0,4328.461426,4373.974121,4301.410156,4354.615234,4391.410156,4402.436035,4410.256348,4457.563965,4409.230957,4355.0,4408.589844,4267.692383,4417.692383
1698668159.075692,0.0,4306.922852,4369.871582,4286.666504,4345.0,4390.256348,4398.205078,4417.436035,4456.025879,4411.666504,4361.794922,4410.512695,4260.769043,4415.128418
1698668159.0835,0.0,4316.025879,4375.0,4286.794922,4343.333496,4394.487305,4399.615234,4418.205078,4461.025879,4407.820313,4357.307617,4401.666504,4218.461426,4418.717773
1698668159.091308,0.0,4325.384766,4378.205078,4310.0,4359.358887,4393.974121,4399.743652,4406.282227,4453.589844,4408.461426,4359.871582,4410.256348,4249.102539,4413.589844
1698668159.099116,0.0,4305.512695,4365.256348,4277.692383,4340.512695,4393.205078,4406.282227,4423.205078,4463.974121,4423.205078,4367.94873,4407.436035,4244.871582,4406.538574
1698668159.106925,0.0,4316.153809,4382.692383,4290.641113,4351.794922,4394.871582,4399.615234,4417.05127,4451.282227,4407.820313,4354.743652,4404.358887,4247.179688,4407.179688
1698668159.114733,0.0,4313.717773,4380.256348,4305.384766,4362.307617,4392.307617,4391.666504,4405.897461,4453.461426,4410.256348,4360.128418,4409.743652,4270.256348,4407.307617
1698668159.122541,0.0,4297.05127,4371.153809,4278.589844,4339.102539,4390.256348,4399.487305,4421.794922,4468.846191,4428.077148,4372.94873,4401.282227,4164.358887,4407.94873
1698668159.13035,0.0,4316.153809,4385.512695,4294.743652,4347.05127,4390.897461,4400.512695,4416.282227,4453.589844,4414.743652,4364.358887,4406.025879,4153.717773,4409.230957
1698668159.138158,0.0,4316.153809,4375.641113,4291.538574,4351.025879,4392.179688,4402.94873,4411.794922,4459.102539,4413.717773,4360.256348,4409.743652,4264.358887,4410.512695
1698668159.145966,0.0,4296.282227,4381.153809,4284.230957,4348.846191,4393.205078,4404.102539,4416.794922,4455.897461,4418.205078,4359.871582,4405.256348,4270.0,4410.897461
1698668159.153774,0.0,4301.410156,4389.358887,4301.666504,4350.256348,4394.102539,4400.256348,4420.0,4448.077148,4417.179688,4366.025879,4406.410156,4231.282227,4407.563965
1698668159.161582,0.0,4320.512695,4372.94873,4297.436035,4346.282227,4394.487305,4403.717773,4417.563965,4463.077148,4419.230957,4370.641113,4400.0,4218.717773,4408.846191
1698668159.169391,0.0,4316.538574,4369.358887,4286.282227,4353.333496,4392.94873,4404.102539,4409.230957,4461.282227,4418.717773,4364.743652,4402.05127,4240.769043,4415.0
1698668159.177199,0.0,4296.282227,4372.436035,4279.102539,4348.333496,4390.512695,4401.153809,4418.846191,4459.743652,4421.794922,4361.538574,4407.94873,4236.025879,4413.717773
1698668159.185007,0.0,4306.538574,4385.0,4292.307617,4344.871582,4389.871582,4400.384766,4419.743652,4460.897461,4416.410156,4362.820313,4405.641113,4222.05127,4410.384766
1698668159.192815,0.0,4322.436035,4382.436035,4293.333496,4348.077148,4390.641113,4399.743652,4412.307617,4455.256348,4413.974121,4364.487305,4407.692383,4233.974121,4412.820313
1698668159.200623,0.0,4307.307617,4371.538574,4274.102539,4344.615234,4392.179688,4399.358887,4416.282227,4456.153809,4419.615234,4362.563965,4410.128418,4224.743652,4417.692383
1698668159.208432,0.0,4298.589844,4384.743652,4287.692383,4349.358887,4393.333496,4399.230957,4412.94873,4457.179688,4415.256348,4364.358887,4409.230957,4194.615234,4419.102539
1698668159.21624,0.0,4302.307617,4385.769043,4300.128418,4347.692383,4393.589844,4401.666504,4412.05127,4456.794922,4414.487305,4365.769043,4409.230957,4218.974121,4412.692383
1698668159.224048,0.0,4302.05127,4383.589844,4291.538574,4345.384766,4393.205078,4401.410156,4415.897461,4453.974121,4417.563965,4363.333496,4410.128418,4260.128418,4410.0
1698668159.231856,0.0,4306.025879,4383.589844,4286.025879,4348.077148,4390.641113,4399.358887,4414.230957,4458.717773,4412.179688,4364.615234,4410.0,4254.871582,4415.897461
1698668159.239664,0.0,4308.974121,4373.846191,4279.230957,4344.615234,4391.282227,4400.641113,4411.666504,4467.94873,4409.487305,4364.743652,4406.410156,4212.563965,4423.461426
1698668159.247473,0.0,4303.077148,4378.717773,4282.563965,4347.94873,4394.358887,4401.025879,4411.025879,4460.0,4412.179688,4365.512695,4406.025879,4200.512695,4422.692383
1698668159.255281,0.0,4301.794922,4382.179688,4289.230957,4346.922852,4393.205078,4402.820313,4416.922852,4455.897461,4412.179688,4365.769043,4406.282227,4233.974121,4412.820313
1698668159.263089,0.0,4312.307617,4380.769043,4290.769043,4345.897461,4390.897461,4401.922852,4417.05127,4461.794922,4408.846191,4361.410156,4404.871582,4253.974121,4415.769043
1698668159.270897,0.0,4312.436035,4379.487305,4290.769043,4351.025879,4391.153809,4399.102539,4409.871582,4458.846191,4409.230957,4363.077148,4408.461426,4237.94873,4423.333496
1698668159.278705,0.0,4299.871582,4377.05127,4290.897461,4347.307617,4391.153809,4402.692383,4413.333496,4457.179688,4409.487305,4364.102539,4406.538574,4218.461426,4418.205078
1698668159.286514,0.0,4298.974121,4384.487305,4295.0,4347.820313,4391.153809,4403.717773,4416.538574,4457.179688,4407.179688,4362.563965,4406.538574,4215.256348,4418.974121
1698668159.294322,0.0,4307.179688,4381.794922,4289.358887,4350.769043,4391.794922,4398.077148,4412.179688,4456.794922,4410.512695,4364.743652,4412.563965,4231.794922,4422.94873
1698668159.30213,0.0,4311.025879,4374.743652,4286.282227,4349.615234,4391.922852,4398.974121,4410.512695,4458.461426,4413.461426,4361.794922,4407.05127,4236.025879,4422.05127
1698668159.309939,0.0,4308.077148,4375.256348,4293.077148,4350.384766,4392.307617,4403.846191,4411.538574,4463.589844,4412.692383,4359.102539,4401.666504,4229.743652,4424.102539
1698668159.317747,0.0,4307.179688,4372.179688,4286.538574,4347.563965,4392.94873,4401.153809,4414.230957,4468.461426,4414.102539,4365.0,4408.461426,4221.922852,4424.615234
1698668159.325555,0.0,4308.846191,4375.128418,4280.384766,4348.846191,4393.846191,4398.717773,4413.461426,4459.615234,4413.846191,4367.94873,4411.666504,4203.461426,4422.05127
1698668159.333363,0.0,4315.641113,4373.461426,4282.563965,4350.769043,4392.692383,4401.025879,4413.461426,4459.102539,4416.538574,4366.538574,4407.307617,4213.589844,4422.692383
1698668159.341171,0.0,4317.820313,4374.615234,4290.256348,4347.563965,4391.538574,4402.179688,4416.153809,4464.230957,4416.666504,4365.384766,4407.563965,4240.0,4425.512695
1698668159.34898,0.0,4307.820313,4385.384766,4294.487305,4348.846191,4391.794922,4400.512695,4416.282227,4455.0,4409.615234,4364.743652,4412.307617,4239.743652,4422.179688
1698668159.356788,0.0,4298.589844,4381.153809,4280.512695,4347.692383,4392.05127,4396.666504,4419.743652,4453.333496,4413.205078,4366.666504,4414.230957,4218.717773,4420.128418
1698668159.364596,0.0,4300.512695,4380.641113,4281.794922,4346.794922,4392.307617,4393.333496,4419.871582,4455.256348,4416.666504,4365.256348,4411.794922,4204.487305,4421.922852
1698668159.372404,0.0,4308.333496,4380.769043,4292.94873,4349.615234,4391.282227,4395.641113,4414.743652,4460.384766,4414.615234,4363.205078,4408.205078,4213.846191,4419.871582
1698668159.380212,0.0,4309.358887,4372.820313,4285.0,4346.410156,4390.641113,4402.179688,4413.974121,4466.153809,4413.589844,4364.102539,4405.512695,4224.615234,4421.025879
1698668159.388021,0.0,4298.717773,4379.230957,4286.025879,4344.615234,4391.538574,4401.153809,4416.410156,4452.563965,4410.512695,4362.692383,4407.307617,4236.410156,4422.820313
1698668159.395829,0.0,4300.256348,4380.512695,4294.358887,4347.563965,4392.436035,4394.230957,4417.820313,4450.0,4413.846191,4365.512695,4413.077148,4226.794922,4419.615234
1698668159.403637,0.0,4320.641113,4371.666504,4287.692383,4352.94873,4391.666504,4394.743652,4412.179688,4467.05127,4418.461426,4368.461426,4412.94873,4198.974121,4420.384766
1698668159.411445,0.0,4322.94873,4366.153809,4283.461426,4350.769043,4391.025879,4400.641113,4409.743652,4473.589844,4417.436035,4365.641113,4411.282227,4211.794922,4421.922852
1698668159.419253,0.0,4307.563965,4373.717773,4293.333496,4345.512695,4392.563965,4399.487305,4414.102539,4464.487305,4417.179688,4365.641113,4411.410156,4243.974121,4420.641113
1698668159.427062,0.0,4311.410156,4381.282227,4295.128418,4350.0,4391.538574,4395.769043,4412.436035,4460.512695,4416.666504,4369.743652,4410.128418,4242.692383,4419.743652
1698668159.43487,0.0,4318.974121,4363.589844,4281.410156,4349.487305,4388.717773,4397.436035,4408.974121,4471.794922,4415.769043,4370.0,4412.05127,4227.436035,4420.897461
1698668159.442678,0.0,4310.0,4366.922852,4286.538574,4348.461426,4390.512695,4398.461426,4411.538574,4471.153809,4418.974121,4369.102539,4412.05127,4225.641113,4422.563965
1698668159.450486,0.0,4305.256348,4384.230957,4299.102539,4352.179688,4391.666504,4400.256348,4416.922852,4463.974121,4421.282227,4370.897461,4406.410156,4226.410156,4419.487305
1698668159.458295,0.0,4318.974121,4374.102539,4290.384766,4350.256348,4389.102539,4401.794922,4414.102539,4471.025879,4421.025879,4370.384766,4407.820313,4214.743652,4414.743652
1698668159.466103,0.0,4319.871582,4368.589844,4286.794922,4348.205078,4388.077148,4399.615234,4409.871582,4470.512695,4422.94873,4372.820313,4412.307617,4216.410156,4415.128418
1698668159.473911,0.0,4307.563965,4372.05127,4293.717773,4347.05127,4389.230957,4400.384766,4412.05127,4464.102539,4423.717773,4373.717773,4409.358887,4224.487305,4414.615234
1698668159.481719,0.0,4311.666504,4370.256348,4292.820313,4348.846191,4391.410156,4399.871582,4412.307617,4466.794922,4422.436035,4368.717773,4409.230957,4222.179688,4412.94873
1698668159.489528,0.0,4310.641113,4373.846191,4288.077148,4351.153809,4393.077148,4395.512695,4414.102539,4464.871582,4423.974121,4370.897461,4412.179688,4225.128418,4411.922852
1698668159.497336,0.0,4300.256348,4379.871582,4294.102539,4348.974121,4392.179688,4396.410156,4415.512695,4458.589844,4426.282227,4374.487305,4410.769043,4226.666504,4413.077148
1698668159.505144,0.0,4310.512695,4376.538574,4295.256348,4349.102539,4390.897461,4401.153809,4411.025879,4465.769043,4425.512695,4369.358887,4406.922852,4231.410156,4416.794922
1698668159.512952,0.0,4322.307617,4369.871582,4285.0,4350.512695,4389.358887,4401.282227,4409.743652,4478.589844,4427.692383,4367.820313,4407.820313,4239.102539,4414.102539
1698668159.52076,0.0,4310.256348,4370.641113,4285.512695,4348.333496,4386.025879,4398.077148,4414.102539,4474.743652,4430.128418,4371.282227,4412.563965,4231.666504,4409.871582
1698668159.528569,0.0,4301.538574,4372.05127,4287.563965,4346.538574,4387.179688,4396.153809,4415.256348,4467.05127,4426.153809,4368.461426,4412.307617,4232.05127,4411.666504
1698668159.536377,0.0,4318.589844,4371.282227,4292.307617,4349.615234,4390.769043,4400.128418,4415.384766,4473.205078,4425.897461,4372.179688,4409.230957,4231.794922,4412.05127
1698668159.544185,0.0,4325.384766,4372.692383,4298.333496,4350.897461,4390.897461,4403.333496,4414.871582,4477.179688,4427.307617,4374.871582,4409.358887,4227.436035,4409.487305
1698668159.551993,0.0,4306.025879,4376.153809,4288.846191,4345.769043,4391.410156,4399.871582,4413.589844,4469.358887,4425.0,4367.179688,4410.897461,4230.384766,4406.538574
1698668159.559801,0.0,4297.179688,4376.025879,4287.436035,4347.05127,4392.820313,4397.820313,4413.589844,4464.102539,4425.897461,4369.871582,4411.282227,4221.025879,4406.666504
1698668159.56761,0.0,4312.05127,4375.641113,4299.230957,4350.897461,4391.794922,4402.692383,4412.692383,4473.846191,4424.615234,4372.05127,4407.436035,4212.563965,4407.179688
1698668159.575418,0.0,4318.974121,4375.769043,4296.666504,4348.589844,4391.153809,4402.179688,4415.256348,4480.897461,4424.102539,4370.256348,4407.179688,4211.153809,4402.820313
1698668159.583226,0.0,4304.743652,4377.05127,4288.333496,4348.333496,4394.615234,4397.692383,4417.179688,4470.256348,4427.307617,4370.769043,4413.974121,4217.820313,4401.282227
1698668159.591034,0.0,4298.461426,4375.512695,4289.230957,4348.717773,4395.384766,4397.05127,4415.256348,4466.538574,4426.538574,4368.589844,4412.94873,4235.128418,4402.05127
1698668159.598843,0.0,4311.153809,4369.102539,4294.615234,4347.94873,4389.102539,4397.820313,4416.025879,4478.974121,4424.871582,4370.512695,4405.897461,4229.743652,4400.512695
1698668159.606651,0.0,4315.128418,4371.153809,4292.05127,4348.077148,4388.461426,4400.384766,4416.410156,4481.153809,4424.358887,4368.846191,4407.563965,4218.846191,4403.077148
1698668159.614459,0.0,4304.871582,4375.256348,4286.666504,4346.794922,4395.128418,4401.666504,4413.461426,4471.025879,4423.589844,4364.615234,4412.05127,4220.641113,4401.922852
1698668159.622267,0.0,4300.769043,4378.077148,4290.0,4345.641113,4394.615234,4400.641113,4412.05127,4466.666504,4422.563965,4367.307617,4410.769043,4218.717773,4394.230957
1698668159.630075,0.0,4307.179688,4378.077148,4286.666504,4345.897461,4388.846191,4400.256348,4415.128418,4470.641113,4419.358887,4367.05127,4406.153809,4225.128418,4396.410156
1698668159.637884,0.0,4312.05127,4375.256348,4286.666504,4348.077148,4390.256348,4398.333496,4417.179688,4470.0,4417.307617,4365.512695,4405.0,4222.179688,4399.230957
1698668159.645692,0.0,4308.589844,4381.410156,4294.230957,4349.487305,4395.128418,4402.820313,4416.282227,4462.563965,4419.871582,4365.512695,4408.077148,4210.0,4395.769043
1698668159.6535,0.0,4309.743652,4379.102539,4287.94873,4348.461426,4392.307617,4409.230957,4414.871582,4465.384766,4421.410156,4365.256348,4405.512695,4214.358887,4397.436035
1698668159.661308,0.0,4315.641113,4369.743652,4282.436035,4348.205078,4388.077148,4404.615234,4412.563965,4474.358887,4419.358887,4366.794922,4403.205078,4222.692383,4401.538574
1698668159.669117,0.0,4310.384766,4376.922852,4289.358887,4347.692383,4391.410156,4400.384766,4414.358887,4471.282227,4418.589844,4365.641113,4403.974121,4204.102539,4398.717773
1698668159.676925,0.0,4304.743652,4384.102539,4288.846191,4347.692383,4393.717773,4400.641113,4414.615234,4464.743652,4416.922852,4360.641113,4402.307617,4215.897461,4396.922852
1698668159.684733,0.0,4301.153809,4379.871582,4283.717773,4348.846191,4390.641113,4399.487305,4412.820313,4462.820313,4416.410156,4364.358887,4404.487305,4250.897461,4400.897461
1698668159.692541,0.0,4297.436035,4381.538574,4289.615234,4347.94873,4391.922852,4400.641113,4417.307617,4463.205078,4416.025879,4366.025879,4404.487305,4229.615234,4402.05127
1698668159.700349,0.0,4303.205078,4384.487305,4291.025879,4347.563965,4395.256348,4400.512695,4418.589844,4465.384766,4415.384766,4359.743652,4402.692383,4200.897461,4401.794922
1698668159.708158,0.0,4307.563965,4378.077148,4281.025879,4348.205078,4393.333496,4400.256348,4416.538574,4466.025879,4415.641113,4361.153809,4403.717773,4207.307617,4401.794922
1698668159.715966,0.0,4307.563965,4371.922852,4282.692383,4348.846191,4392.05127,4401.794922,4413.717773,4465.512695,4413.974121,4362.692383,4403.205078,4231.410156,4405.512695
1698668159.723774,0.0,4310.512695,4375.256348,4287.692383,4351.025879,4392.563965,4401.153809,4411.153809,4467.179688,4414.871582,4360.769043,4401.922852,4237.820313,4406.538574
1698668159.731582,0.0,4313.974121,4380.641113,4284.743652,4348.589844,4391.025879,4401.282227,4415.128418,4463.589844,4414.615234,4361.153809,4403.589844,4212.05127,4400.641113
1698668159.73939,0.0,4306.282227,4382.692383,4289.615234,4346.153809,4391.538574,4405.384766,4419.102539,4454.871582,4410.128418,4360.256348,4407.179688,4217.94873,4402.05127
1698668159.747199,0.0,4299.615234,4384.358887,4295.769043,4348.717773,4393.333496,4406.282227,4417.05127,4456.410156,4412.692383,4361.025879,4405.897461,4236.666504,4404.358887
1698668159.755007,0.0,4311.538574,4382.563965,4295.384766,4348.461426,4391.153809,4402.94873,4415.256348,4465.512695,4413.461426,4359.615234,4402.179688,4228.461426,4402.05127
1698668159.762815,0.0,4311.410156,4379.102539,4293.846191,4345.897461,4390.128418,4401.794922,4417.820313,4468.846191,4411.922852,4357.307617,4401.922852,4216.538574,4402.820313
1698668159.770623,0.0,4293.461426,4380.641113,4285.384766,4346.666504,4392.05127,4400.384766,4415.769043,4458.717773,4412.563965,4358.974121,4406.922852,4213.461426,4406.410156
1698668159.778432,0.0,4294.743652,4381.666504,4279.615234,4349.871582,4393.974121,4399.487305,4411.538574,4450.0,4406.282227,4359.487305,4410.0,4230.256348,4407.05127
1698668159.78624,0.0,4311.282227,4377.436035,4283.461426,4350.769043,4394.230957,4400.641113,4414.358887,4461.794922,4408.077148,4357.436035,4404.358887,4236.922852,4408.846191
1698668159.794048,0.0,4308.205078,4374.358887,4280.897461,4348.974121,4391.282227,4398.717773,4417.436035,4466.025879,4410.256348,4353.846191,4406.025879,4221.025879,4413.077148
1698668159.801856,0.0,4295.128418,4380.256348,4278.846191,4347.692383,4389.487305,4398.333496,4416.153809,4454.230957,4402.05127,4356.282227,4407.563965,4206.538574,4410.256348
1698668159.809664,0.0,4304.102539,4385.512695,4287.94873,4347.94873,4390.256348,4402.94873,4416.153809,4455.256348,4405.512695,4361.666504,4400.512695,4193.717773,4406.794922
1698668159.817473,0.0,4314.102539,4380.384766,4292.05127,4348.461426,4390.128418,4400.512695,4416.153809,4459.615234,4411.538574,4355.897461,4404.102539,4218.974121,4411.282227
1698668159.825281,0.0,4302.436035,4380.384766,4285.641113,4347.820313,4391.410156,4396.153809,4417.563965,4451.282227,4407.307617,4353.974121,4410.128418,4251.025879,4416.025879
1698668159.833089,0.0,4299.487305,4383.461426,4285.641113,4347.820313,4392.05127,4400.128418,4419.615234,4451.410156,4407.436035,4358.846191,4404.871582,4225.256348,4413.589844
1698668159.840897,0.0,4312.05127,4377.436035,4284.743652,4348.205078,4388.846191,4401.922852,4416.025879,4459.230957,4412.94873,4356.282227,4406.282227,4197.436035,4410.384766
1698668159.848706,0.0,4310.0,4373.077148,4276.153809,4348.333496,4389.615234,4397.94873,4410.897461,4454.871582,4410.897461,4355.256348,4412.692383,4204.743652,4415.897461
1698668159.856514,0.0,4307.05127,4375.384766,4282.692383,4347.692383,4392.436035,4397.436035,4411.666504,4453.846191,4407.820313,4359.230957,4411.282227,4228.717773,4420.256348
1698668159.864322,0.0,4311.153809,4381.282227,4293.974121,4347.563965,4391.153809,4402.820313,4414.230957,4457.692383,4410.769043,4362.692383,4407.436035,4245.641113,4418.846191
1698668159.87213,0.0,4306.282227,4383.974121,4290.897461,4349.230957,4391.153809,4402.05127,4416.410156,4455.512695,4412.05127,4362.307617,4407.820313,4227.179688,4416.794922
1698668159.879938,0.0,4306.410156,4381.282227,4288.846191,4349.487305,4391.410156,4392.820313,4415.641113,4454.358887,4411.538574,4361.282227,4411.025879,4203.077148,4419.615234
1698668159.887747,0.0,4312.692383,4378.333496,4290.0,4347.563965,4390.256348,4395.641113,4415.897461,4458.846191,4410.641113,4361.666504,4411.538574,4196.794922,4422.307617
1698668159.895555,0.0,4311.153809,4377.563965,4289.358887,4348.205078,4392.307617,4405.512695,4416.666504,4459.230957,4410.897461,4362.436035,4410.769043,4219.487305,4418.461426
1698668159.903363,0.0,4310.641113,4374.487305,4287.307617,4351.025879,4394.487305,4403.717773,4413.205078,4456.153809,4412.05127,4365.512695,4411.025879,4251.410156,4422.563965
1698668159.911171,0.0,4318.205078,4368.717773,4282.05127,4350.769043,4388.846191,4399.871582,4411.153809,4466.025879,4410.128418,4366.025879,4408.333496,4241.153809,4425.769043
1698668159.91898,0.0,4321.025879,4368.974121,4281.538574,4351.410156,4386.282227,4400.384766,4411.025879,4473.846191,4410.256348,4365.256348,4408.846191,4209.102539,4421.153809
1698668159.926788,0.0,4314.230957,4373.205078,4285.128418,4350.384766,4391.282227,4398.717773,4410.256348,4463.205078,4413.077148,4366.025879,4411.666504,4205.641113,4423.846191
1698668159.934596,0.0,4314.358887,4373.974121,4287.563965,4346.794922,4390.641113,4396.153809,4413.974121,4461.410156,4413.205078,4364.743652,4412.307617,4228.717773,4425.128418
1698668159.942404,0.0,4313.205078,4374.743652,4289.358887,4348.974121,4387.05127,4396.153809,4416.025879,4464.743652,4411.794922,4366.153809,4412.179688,4243.974121,4421.794922
1698668159.950212,0.0,4303.333496,4381.922852,4291.922852,4349.487305,4390.897461,4399.487305,4413.717773,4456.538574,4411.922852,4368.717773,4407.563965,4226.410156,4422.179688
1698668159.958021,0.0,4308.333496,4382.436035,4296.794922,4348.974121,4396.153809,4401.538574,4414.358887,4461.153809,4413.333496,4366.922852,4402.692383,4217.05127,4420.384766
1698668159.965829,0.0,4321.666504,4370.0,4289.743652,4350.0,4392.563965,4397.436035,4416.282227,4475.0,4413.974121,4364.102539,4405.897461,4235.384766,4419.102539
1698668159.973637,0.0,4316.538574,4366.282227,4277.179688,4347.436035,4391.025879,4394.871582,4412.563965,4472.436035,4415.512695,4364.871582,4409.743652,4238.717773,4421.794922
1698668159.981445,0.0,4306.538574,4373.205078,4284.487305,4348.205078,4394.487305,4399.615234,4410.256348,4463.589844,4418.974121,4366.410156,4407.307617,4227.436035,4417.94873
1698668159.989253,0.0,4310.0,4377.436035,4297.563965,4350.769043,4392.307617,4402.436035,4413.717773,4461.794922,4418.077148,4364.358887,4404.102539,4233.974121,4411.153809
1698668159.997062,0.0,4315.769043,4371.410156,4290.384766,4349.871582,4390.128418,4398.205078,4412.94873,4465.256348,4416.538574,4361.922852,4410.512695,4236.282227,4412.563965
1698668160.00487,0.0,4316.153809,4366.410156,4280.0,4348.846191,4391.538574,4396.282227,4411.538574,4468.333496,4418.333496,4365.641113,4413.333496,4227.692383,4415.769043
1698668160.012678,0.0,4316.538574,4375.128418,4289.871582,4350.128418,4392.94873,4400.897461,4416.410156,4470.769043,4419.230957,4369.102539,4405.128418,4226.794922,4413.461426
1698668160.020486,0.0,4311.410156,4379.102539,4296.794922,4349.230957,4392.179688,4400.0,4416.666504,4467.94873,4419.743652,4365.897461,4403.974121,4226.410156,4410.384766
1698668160.028295,0.0,4309.358887,4373.205078,4285.256348,4348.461426,4391.794922,4395.897461,4412.563965,4468.846191,4422.563965,4364.743652,4411.282227,4233.589844,4410.769043
1698668160.036103,0.0,4317.820313,4371.410156,4284.743652,4348.205078,4391.666504,4398.333496,4413.077148,4473.077148,4425.897461,4371.410156,4411.922852,4233.333496,4412.563965
1698668160.043911,0.0,4313.717773,4373.077148,4300.641113,4346.922852,4391.025879,4399.358887,4416.025879,4469.230957,4428.974121,4377.692383,4407.307617,4225.641113,4409.358887
1698668160.051719,0.0,4300.512695,4373.717773,4301.538574,4350.128418,4391.538574,4397.307617,4415.384766,4466.282227,4429.871582,4377.307617,4407.692383,4230.897461,4407.179688
1698668160.059528,0.0,4306.410156,4374.358887,4291.025879,4349.871582,4393.974121,4399.102539,4413.205078,4469.358887,4429.358887,4375.897461,4410.641113,4230.256348,4410.512695
1698668160.067336,0.0,4312.563965,4374.230957,4290.0,4345.769043,4392.94873,4400.384766,4413.974121,4468.589844,4431.282227,4375.512695,4411.666504,4231.794922,4408.333496
1698668160.075144,0.0,4303.974121,4374.358887,4292.436035,4347.692383,4388.974121,4398.461426,4417.692383,4460.0,4430.512695,4376.282227,4412.563965,4233.077148,4403.589844
1698668160.082952,0.0,4302.179688,4377.94873,4293.205078,4350.384766,4391.410156,4397.179688,4417.94873,4464.230957,4425.897461,4374.102539,4411.666504,4229.615234,4402.820313
1698668160.09076,0.0,4306.410156,4381.153809,4291.538574,4345.641113,4393.461426,4397.307617,4415.769043,4473.077148,4425.0,4370.641113,4409.615234,4234.230957,4405.897461
1698668160.098569,0.0,4314.358887,4375.897461,4289.743652,4345.0,4388.589844,4398.846191,4414.615234,4475.769043,4426.153809,4373.205078,4407.307617,4227.436035,4408.846191
1698668160.106377,0.0,4324.743652,4365.0,4288.461426,4349.615234,4387.94873,4403.077148,4413.077148,4486.025879,4423.717773,4369.358887,4406.410156,4223.589844,4406.153809
1698668160.114185,0.0,4318.589844,4366.666504,4288.717773,4348.205078,4391.410156,4402.94873,4415.512695,4484.615234,4423.205078,4367.692383,4406.666504,4226.666504,4401.282227
1698668160.121993,0.0,4308.333496,4378.974121,4296.794922,4348.077148,4390.0,4398.461426,4418.333496,4474.487305,4425.384766,4375.128418,4407.94873,4218.077148,4399.358887
1698668160.129801,0.0,4305.769043,4382.179688,4302.179688,4348.846191,4389.102539,4398.717773,4418.589844,4473.974121,4423.077148,4372.94873,4406.025879,4218.077148,4399.230957
1698668160.13761,0.0,4301.282227,4377.307617,4294.743652,4345.512695,4389.102539,4400.0,4419.230957,4470.128418,4423.974121,4369.230957,4408.333496,4221.025879,4396.153809
1698668160.145418,0.0,4297.820313,4378.461426,4290.769043,4343.846191,4388.461426,4397.820313,4420.128418,4462.179688,4425.0,4370.0,4413.974121,4225.128418,4395.641113
1698668160.153226,0.0,4299.230957,4383.589844,4292.820313,4347.436035,4391.666504,4398.461426,4415.897461,4464.230957,4421.282227,4369.871582,4406.538574,4230.769043,4397.692383
1698668160.161034,0.0,4305.641113,4380.769043,4293.589844,4351.794922,4393.589844,4401.538574,4411.922852,4471.282227,4420.641113,4368.717773,4401.282227,4216.153809,4396.282227
1698668160.168842,0.0,4310.384766,4372.820313,4287.820313,4348.846191,4391.410156,4399.615234,4415.641113,4472.436035,4421.538574,4366.410156,4407.563965,4211.410156,4396.282227
1698668160.176651,0.0,4308.717773,4373.077148,4284.358887,4346.666504,4391.153809,4396.538574,4419.358887,4470.128418,4418.974121,4367.692383,4408.077148,4217.820313,4398.205078
1698668160.184459,0.0,4307.05127,4379.102539,4288.589844,4349.871582,4392.179688,4400.384766,4416.922852,4462.436035,4417.563965,4369.487305,4404.743652,4215.512695,4396.410156
1698668160.192267,0.0,4310.256348,4377.692383,4286.666504,4349.102539,4392.94873,4405.128418,4415.0,4460.512695,4419.102539,4366.153809,4404.487305,4213.846191,4393.974121
1698668160.200076,0.0,4309.230957,4372.692383,4285.512695,4346.282227,4392.94873,4402.307617,4416.666504,4467.05127,4420.128418,4363.717773,4403.974121,4216.794922,4398.589844
1698668160.207884,0.0,4300.256348,4378.461426,4288.077148,4346.410156,4392.05127,4396.538574,4417.436035,4465.384766,4418.846191,4364.615234,4405.897461,4212.820313,4400.512695
1698668160.215692,0.0,4303.846191,4381.794922,4289.102539,4346.153809,4391.153809,4394.871582,4415.0,4463.974121,4415.897461,4364.230957,4405.769043,4221.666504,4401.410156
1698668160.2235,0.0,4320.769043,4372.94873,4289.358887,4347.820313,4389.871582,4399.615234,4412.563965,4472.94873,4416.538574,4363.717773,4399.102539,4238.974121,4403.717773
1698668160.231308,0.0,4325.897461,4368.846191,4286.922852,4351.282227,4390.384766,4405.512695,4414.743652,4475.641113,4416.538574,4362.179688,4398.205078,4230.512695,4402.307617
1698668160.239117,0.0,4314.358887,4374.743652,4290.128418,4348.589844,4391.794922,4405.0,4418.589844,4463.205078,4413.589844,4360.0,4401.794922,4216.922852,4403.077148
1698668160.246925,0.0,4314.358887,4380.384766,4294.871582,4346.538574,4391.538574,4406.282227,4417.05127,4462.820313,4415.512695,4361.282227,4398.846191,4210.384766,4402.94873
1698668160.254733,0.0,4324.743652,4380.0,4291.025879,4351.153809,4392.94873,4408.717773,4415.384766,4469.487305,4414.615234,4359.230957,4400.384766,4216.025879,4403.589844
1698668160.262541,0.0,4311.922852,4378.461426,4283.333496,4351.153809,4393.717773,4403.205078,4415.641113,4460.128418,4413.205078,4359.487305,4408.461426,4228.205078,4405.0
1698668160.270349,0.0,4296.025879,4382.307617,4288.846191,4345.897461,4391.025879,4398.333496,4415.384766,4450.512695,4412.307617,4362.05127,4406.922852,4211.794922,4402.820313
1698668160.278158,0.0,4303.589844,4386.282227,4299.871582,4347.179688,4391.282227,4400.769043,4414.615234,4450.641113,4407.307617,4357.179688,4404.230957,4210.512695,4399.487305
1698668160.285966,0.0,4314.230957,4384.871582,4296.410156,4351.153809,4394.871582,4405.256348,4415.384766,4459.615234,4409.230957,4357.820313,4403.333496,4231.666504,4398.974121
1698668160.293774,0.0,4312.94873,4376.153809,4284.743652,4347.94873,4393.077148,4404.230957,4416.153809,4468.589844,4412.05127,4361.794922,4400.512695,4231.025879,4408.846191
1698668160.301582,0.0,4306.794922,4372.179688,4275.897461,4344.743652,4389.615234,4398.589844,4415.897461,4466.794922,4411.153809,4360.0,4401.282227,4217.05127,4412.307617
1698668160.30939,0.0,4308.077148,4379.358887,4283.589844,4345.512695,4392.563965,4398.846191,4416.794922,4456.410156,4413.589844,4357.692383,4401.794922,4205.512695,4407.692383
1698668160.317199,0.0,4311.282227,4383.077148,4298.461426,4347.692383,4393.846191,4402.820313,4416.282227,4453.077148,4410.256348,4355.769043,4400.256348,4223.974121,4407.307617
1698668160.325007,0.0,4304.615234,4377.307617,4293.589844,4351.922852,4391.922852,4401.410156,4414.743652,4460.128418,4406.666504,4358.589844,4399.487305,4252.307617,4408.589844
1698668160.332815,0.0,4303.461426,4377.179688,4289.102539,4351.794922,4393.589844,4401.794922,4415.384766,4460.897461,4406.538574,4356.410156,4400.897461,4236.410156,4408.589844
1698668160.340623,0.0,4308.717773,4384.615234,4298.461426,4347.820313,4394.102539,4404.615234,4417.307617,4456.666504,4404.358887,4350.897461,4402.820313,4201.666504,4406.794922
1698668160.348431,0.0,4307.179688,4384.230957,4292.307617,4346.410156,4391.922852,4400.769043,4417.179688,4454.358887,4408.077148,4355.769043,4403.846191,4195.897461,4408.974121
1698668160.35624,0.0,4307.436035,4381.025879,4283.974121,4349.487305,4391.922852,4397.94873,4416.282227,4452.436035,4410.641113,4357.820313,4405.512695,4230.897461,4411.922852
1698668160.364048,0.0,4304.230957,4382.307617,4289.743652,4351.153809,4391.922852,4399.871582,4418.589844,4450.512695,4406.538574,4352.179688,4406.410156,4255.512695,4410.897461
1698668160.371856,0.0,4302.307617,4379.487305,4287.820313,4348.589844,4390.0,4399.615234,4416.922852,4457.179688,4407.179688,4355.384766,4407.05127,4231.153809,4412.05127
1698668160.379665,0.0,4317.05127,4373.974121,4283.846191,4349.743652,4390.512695,4400.512695,4413.589844,4468.461426,4408.717773,4361.666504,4405.128418,4207.563965,4415.641113
1698668160.387473,0.0,4323.461426,4376.538574,4288.461426,4353.333496,4392.563965,4404.615234,4415.641113,4463.717773,4407.563965,4360.512695,4403.974121,4202.692383,4413.846191
1698668160.395281,0.0,4315.512695,4378.717773,4288.974121,4351.922852,4391.666504,4404.358887,4414.358887,4456.666504,4409.743652,4360.512695,4404.871582,4221.922852,4412.692383
1698668160.403089,0.0,4315.897461,4371.538574,4286.666504,4346.922852,4390.256348,4399.743652,4411.922852,4461.794922,4410.641113,4361.538574,4405.512695,4246.538574,4416.410156
1698668160.410897,0.0,4318.333496,4375.641113,4289.487305,4346.794922,4391.153809,4398.589844,4414.102539,4460.641113,4408.205078,4358.333496,4403.589844,4227.307617,4416.922852
1698668160.418706,0.0,4311.666504,4381.666504,4290.769043,4349.358887,4392.307617,4401.153809,4414.871582,4455.128418,4410.256348,4358.333496,4404.102539,4206.922852,4415.512695
1698668160.426514,0.0,4308.205078,4377.307617,4285.897461,4346.794922,4392.179688,4400.0,4414.743652,4458.077148,4410.769043,4361.794922,4408.717773,4212.692383,4413.205078
1698668160.434322,0.0,4313.077148,4378.333496,4283.461426,4347.05127,4390.384766,4395.641113,4415.384766,4463.974121,4411.153809,4362.179688,4412.05127,4228.974121,4414.487305
1698668160.44213,0.0,4317.179688,4379.871582,4284.871582,4348.717773,4389.615234,4399.230957,4413.589844,4461.666504,4411.410156,4362.307617,4411.025879,4235.641113,4420.256348
1698668160.449938,0.0,4321.666504,4375.897461,4286.282227,4347.94873,4392.563965,4406.282227,4413.974121,4461.538574,4408.717773,4364.102539,4408.461426,4215.769043,4420.512695
1698668160.457747,0.0,4319.871582,4375.128418,4285.0,4349.615234,4394.358887,4400.512695,4417.563965,4466.666504,4409.487305,4364.230957,4410.897461,4216.410156,4416.153809
1698668160.465555,0.0,4307.563965,4380.128418,4282.692383,4349.102539,4392.179688,4393.333496,4415.512695,4459.871582,4409.230957,4366.025879,4411.282227,4232.94873,4419.487305
1698668160.473363,0.0,4309.102539,4379.230957,4285.128418,4345.384766,4390.0,4398.846191,4410.128418,4455.512695,4408.461426,4366.282227,4408.974121,4221.666504,4421.282227
1698668160.481171,0.0,4317.436035,4374.487305,4292.436035,4346.666504,4391.025879,4400.769043,4408.846191,4460.0,4409.743652,4363.461426,4410.384766,4212.692383,4419.230957
1698668160.488979,0.0,4307.94873,4377.436035,4298.846191,4350.384766,4392.94873,4397.307617,4412.820313,4460.128418,4410.256348,4366.025879,4408.077148,4218.589844,4420.512695
1698668160.496788,0.0,4300.897461,4380.897461,4298.333496,4348.589844,4392.820313,4398.333496,4416.410156,4455.384766,4411.282227,4368.333496,4408.589844,4227.94873,4416.794922
1698668160.504596,0.0,4312.307617,4374.743652,4286.538574,4346.025879,4391.410156,4399.871582,4412.820313,4455.256348,4412.820313,4365.641113,4412.563965,4237.94873,4418.461426
1698668160.512404,0.0,4311.410156,4370.769043,4280.128418,4348.589844,4390.512695,4395.897461,4413.077148,4462.179688,4413.846191,4365.769043,4412.820313,4234.230957,4422.179688
1698668160.520212,0.0,4306.794922,4377.307617,4295.641113,4352.692383,4390.641113,4395.897461,4417.563965,4464.743652,4416.282227,4367.05127,4410.256348,4225.256348,4417.563965
1698668160.528021,0.0,4316.666504,4372.692383,4299.871582,4351.153809,4390.256348,4403.205078,4414.487305,4464.871582,4416.922852,4363.589844,4404.615234,4234.743652,4416.025879
1698668160.535829,0.0,4313.717773,4364.487305,4282.820313,4348.077148,4391.153809,4401.538574,4411.794922,4463.846191,4416.282227,4363.077148,4407.436035,4235.0,4417.307617
1698668160.543637,0.0,4301.666504,4370.769043,4279.102539,4349.358887,4391.538574,4391.794922,4415.641113,4459.102539,4418.205078,4367.692383,4416.538574,4227.563965,4416.666504
1698668160.551445,0.0,4302.307617,4373.717773,4286.666504,4347.692383,4390.641113,4392.563965,4414.871582,4460.641113,4417.692383,4366.410156,4413.205078,4234.102539,4411.922852
1698668160.559254,0.0,4308.333496,4372.307617,4290.769043,4346.025879,4392.05127,4398.077148,4408.589844,4465.0,4418.717773,4365.256348,4405.128418,4237.692383,4409.743652
1698668160.567062,0.0,4310.0,4377.179688,4290.128418,4349.615234,4393.205078,4399.743652,4411.025879,4462.692383,4421.538574,4369.743652,4407.692383,4237.94873,4412.307617
1698668160.57487,0.0,4314.230957,4377.563965,4285.641113,4350.256348,4391.922852,4400.897461,4415.512695,4464.487305,4420.0,4370.128418,4413.461426,4237.563965,4413.974121
1698668160.582678,0.0,4318.333496,4372.563965,4285.641113,4347.94873,4390.512695,4399.743652,4414.358887,4472.563965,4422.692383,4369.487305,4412.179688,4227.436035,4413.589844
1698668160.590486,0.0,4312.563965,4375.384766,4292.436035,4348.974121,4391.410156,4397.692383,4415.256348,4468.589844,4426.666504,4371.410156,4406.025879,4221.025879,4409.358887
1698668160.598295,0.0,4317.563965,4377.820313,4302.820313,4351.025879,4392.436035,4400.897461,4415.641113,4465.641113,4424.615234,4374.230957,4401.922852,4218.974121,4408.205078
1698668160.606103,0.0,4323.205078,4372.820313,4300.0,4349.615234,4392.563965,4402.179688,4414.871582,4473.589844,4428.077148,4376.282227,4405.256348,4231.538574,4411.025879
1698668160.613911,0.0,4306.922852,4371.410156,4284.230957,4346.794922,4392.692383,4398.333496,4414.358887,4470.641113,4432.05127,4375.897461,4410.128418,4238.461426,4408.077148
1698668160.621719,0.0,4302.692383,4371.794922,4283.077148,4345.128418,4392.94873,4397.436035,4411.410156,4465.512695,4429.102539,4377.307617,4409.615234,4224.743652,4405.0
1698668160.629527,0.0,4318.846191,4373.461426,4291.794922,4344.230957,4391.922852,4399.230957,4411.410156,4470.128418,4427.307617,4378.077148,4407.05127,4227.94873,4406.922852
1698668160.637336,0.0,4317.820313,4375.897461,4290.256348,4347.692383,4390.128418,4400.0,4415.769043,4470.769043,4427.692383,4377.307617,4406.410156,4233.077148,4406.666504
1698668160.645144,0.0,4307.692383,4375.256348,4286.794922,4351.410156,4391.410156,4400.897461,4415.769043,4472.94873,4428.205078,4374.358887,4408.077148,4230.384766,4405.897461
1698668160.652952,0.0,4313.333496,4372.820313,4291.153809,4347.436035,4393.589844,4400.128418,4413.461426,4478.333496,4428.589844,4374.743652,4406.538574,4235.128418,4406.794922
1698668160.66076,0.0,4311.538574,4375.769043,4293.077148,4346.153809,4394.230957,4399.871582,4415.512695,4474.871582,4425.256348,4375.897461,4405.641113,4234.615234,4403.461426
1698668160.668568,0.0,4303.461426,4383.974121,4295.128418,4349.358887,4393.717773,4403.205078,4418.077148,4470.512695,4421.025879,4369.487305,4408.077148,4233.205078,4399.743652
1698668160.676377,0.0,4310.641113,4380.512695,4293.333496,4346.538574,4393.589844,4403.333496,4417.563965,4470.384766,4424.102539,4367.94873,4408.589844,4222.563965,4399.102539
1698668160.684185,0.0,4311.025879,4373.461426,4280.0,4342.94873,4393.846191,4398.846191,4415.0,4468.974121,4426.153809,4369.487305,4409.871582,4216.794922,4398.717773
1698668160.691993,0.0,4307.820313,4372.179688,4277.820313,4345.384766,4391.922852,4400.641113,4413.717773,4472.94873,4424.615234,4369.358887,4408.589844,4227.820313,4400.512695
1698668160.699801,0.0,4316.794922,4371.410156,4288.974121,4349.487305,4391.282227,4403.846191,4416.153809,4478.717773,4426.538574,4371.410156,4405.0,4226.282227,4398.974121
1698668160.70761,0.0,4316.410156,4375.128418,4288.589844,4350.128418,4392.692383,4401.025879,4418.077148,4474.230957,4424.743652,4368.077148,4407.563965,4224.487305,4396.410156
1698668160.715418,0.0,4309.615234,4377.179688,4286.410156,4349.102539,4390.769043,4400.0,4416.153809,4472.94873,4421.794922,4368.333496,4408.461426,4225.897461,4396.922852
1698668160.723226,0.0,4315.384766,4372.94873,4294.615234,4348.589844,4388.077148,4403.077148,4414.615234,4482.05127,4422.692383,4370.641113,4402.179688,4224.358887,4397.05127
1698668160.731034,0.0,4318.461426,4372.436035,4294.871582,4349.230957,4391.538574,4402.94873,4413.077148,4479.615234,4420.897461,4367.436035,4399.358887,4226.282227,4398.846191
1698668160.738843,0.0,4312.179688,4378.589844,4286.666504,4349.358887,4394.615234,4402.563965,4410.897461,4466.538574,4418.333496,4365.0,4403.205078,4213.717773,4398.077148
1698668160.746651,0.0,4309.871582,4376.410156,4278.461426,4346.666504,4392.94873,4402.94873,4410.128418,4470.384766,4418.077148,4367.179688,4407.436035,4214.230957,4396.025879
1698668160.754459,0.0,4309.487305,4373.077148,4273.846191,4345.128418,4391.025879,4399.230957,4413.205078,4480.384766,4418.461426,4369.615234,4407.179688,4227.436035,4399.615234
1698668160.762267,0.0,4312.05127,4376.025879,4283.717773,4347.820313,4390.256348,4400.897461,4416.282227,4479.102539,4420.0,4366.538574,4403.717773,4222.563965,4400.384766
1698668160.770075,0.0,4315.769043,4372.05127,4286.794922,4350.512695,4391.666504,4406.025879,4413.974121,4474.871582,4420.384766,4364.615234,4405.128418,4220.128418,4397.692383
1698668160.777884,0.0,4308.846191,4372.94873,4279.230957,4347.179688,4394.615234,4402.436035,4413.077148,4469.487305,4418.717773,4366.666504,4406.666504,4222.94873,4398.205078
1698668160.785692,0.0,4302.05127,4377.307617,4282.05127,4343.461426,4393.846191,4399.871582,4418.589844,4466.282227,4416.666504,4366.794922,4403.589844,4215.512695,4397.05127
1698668160.7935,0.0,4312.307617,4375.512695,4288.333496,4347.307617,4392.820313,4405.769043,4418.333496,4471.666504,4415.641113,4364.102539,4401.282227,4221.666504,4398.974121
1698668160.801308,0.0,4318.589844,4377.692383,4290.512695,4348.461426,4395.0,4408.205078,4412.820313,4471.410156,4415.128418,4362.820313,4402.820313,4235.769043,4401.794922
1698668160.809116,0.0,4309.230957,4380.0,4290.256348,4343.846191,4394.102539,4405.384766,4413.846191,4459.743652,4415.128418,4363.077148,4405.512695,4224.102539,4397.692383
1698668160.816925,0.0,4309.102539,4373.974121,4286.282227,4345.512695,4392.307617,4404.743652,4415.256348,4458.974121,4414.102539,4360.128418,4407.563965,4226.025879,4402.436035
1698668160.824733,0.0,4313.589844,4375.128418,4292.179688,4349.230957,4393.077148,4407.179688,4416.025879,4466.666504,4412.94873,4359.487305,4405.0,4225.384766,4407.563965
1698668160.832541,0.0,4306.282227,4384.102539,4301.153809,4344.743652,4391.794922,4406.794922,4419.615234,4460.769043,4412.307617,4359.487305,4402.307617,4203.333496,4400.769043
1698668160.840349,0.0,4304.358887,4384.487305,4297.563965,4343.205078,4391.025879,4406.922852,4416.025879,4455.128418,4411.666504,4358.333496,4401.794922,4217.179688,4400.641113
1698668160.848158,0.0,4318.461426,4378.333496,4289.615234,4348.846191,4393.333496,4408.461426,4412.94873,4463.589844,4412.05127,4358.974121,4398.846191,4238.589844,4406.025879
1698668160.855966,0.0,4321.666504,4375.897461,4287.94873,4349.743652,4392.436035,4404.743652,4416.666504,4468.974121,4410.512695,4357.05127,4401.410156,4222.692383,4409.230957
1698668160.863774,0.0,4307.307617,4383.333496,4287.05127,4344.487305,4388.717773,4400.384766,4417.820313,4463.589844,4412.05127,4358.077148,4407.179688,4193.846191,4408.461426
1698668160.871582,0.0,4305.256348,4384.102539,4286.025879,4342.820313,4390.256348,4402.94873,4415.512695,4459.487305,4412.436035,4359.487305,4400.641113,4198.717773,4403.717773
1698668160.87939,0.0,4313.589844,4376.410156,4286.410156,4347.05127,4392.563965,4405.128418,4413.974121,4461.666504,4404.487305,4357.179688,4395.641113,4246.922852,4402.692383
1698668160.887199,0.0,4312.307617,4380.512695,4286.922852,4348.846191,4391.666504,4401.666504,4412.563965,4462.179688,4405.0,4356.410156,4401.922852,4257.692383,4405.256348
1698668160.895007,0.0,4311.410156,4383.589844,4291.153809,4345.641113,4389.743652,4402.563965,4414.615234,4455.641113,4408.077148,4352.563965,4404.358887,4219.230957,4406.538574
1698668160.902815,0.0,4312.436035,4378.846191,4286.410156,4345.384766,4388.205078,4407.436035,4416.538574,4454.615234,4407.307617,4352.563965,4399.871582,4201.282227,4408.846191
1698668160.910623,0.0,4307.94873,4376.794922,4278.589844,4346.282227,4390.128418,4405.641113,4414.871582,4460.384766,4407.436035,4356.666504,4402.307617,4216.666504,4408.589844
1698668160.918432,0.0,4303.077148,4379.358887,4283.974121,4345.769043,4393.717773,4399.743652,4415.384766,4453.974121,4402.307617,4352.179688,4408.205078,4248.077148,4404.230957
1698668160.92624,0.0,4305.0,4386.666504,4289.743652,4349.358887,4393.589844,4399.615234,4416.794922,4450.769043,4403.077148,4352.436035,4405.384766,4253.717773,4407.05127
1698668160.934048,0.0,4316.410156,4383.205078,4290.128418,4351.153809,4392.692383,4404.615234,4413.974121,4466.410156,4407.94873,4355.897461,4401.153809,4223.589844,4410.897461
1698668160.941856,0.0,4314.102539,4374.743652,4286.025879,4346.794922,4394.743652,4404.487305,4412.307617,4468.846191,4405.769043,4353.974121,4406.025879,4205.641113,4411.282227
1698668160.949664,0.0,4303.846191,4377.307617,4282.692383,4345.512695,4395.512695,4402.436035,4413.077148,4456.666504,4405.128418,4357.05127,4409.230957,4216.153809,4413.461426
1698668160.957473,0.0,4313.077148,4380.641113,4283.846191,4348.717773,4393.974121,4404.743652,4412.563965,4461.922852,4408.589844,4358.589844,4405.897461,4231.922852,4413.077148
1698668160.965281,0.0,4315.897461,4374.871582,4281.794922,4348.974121,4393.717773,4405.641113,4413.974121,4466.922852,4410.128418,4355.641113,4405.256348,4235.128418,4413.846191
1698668160.973089,0.0,4302.05127,4376.794922,4283.589844,4348.589844,4392.307617,4401.282227,4416.922852,4450.384766,4408.461426,4356.666504,4409.358887,4228.461426,4413.333496
1698668160.980897,0.0,4301.153809,4383.717773,4284.230957,4349.102539,4390.512695,4398.846191,4415.512695,4444.743652,4408.974121,4357.94873,4409.615234,4221.410156,4414.230957
1698668160.988706,0.0,4315.897461,4376.666504,4277.563965,4347.820313,4390.769043,4401.282227,4412.563965,4461.025879,4411.282227,4357.563965,4405.641113,4215.512695,4419.487305
1698668160.996514,0.0,4315.384766,4373.589844,4278.205078,4348.461426,4390.641113,4403.205078,4413.205078,4466.666504,4412.820313,4359.871582,4405.641113,4235.897461,4417.307617
1698668161.004322,0.0,4303.846191,4380.512695,4286.282227,4348.077148,4390.641113,4402.307617,4413.717773,4455.897461,4410.0,4361.282227,4408.974121,4255.256348,4415.384766
1698668161.01213,0.0,4304.743652,4378.846191,4285.769043,4347.179688,4390.512695,4397.179688,4410.897461,4455.512695,4409.358887,4360.384766,4411.410156,4230.128418,4418.333496
1698668161.019938,0.0,4307.563965,4375.512695,4281.794922,4349.230957,4390.512695,4395.512695,4411.410156,4459.358887,4414.743652,4362.179688,4412.307617,4207.436035,4419.871582
1698668161.027747,0.0,4307.820313,4376.794922,4281.025879,4348.205078,4391.922852,4401.025879,4415.897461,4456.922852,4415.128418,4363.461426,4410.128418,4215.0,4418.974121
1698668161.035555,0.0,4305.384766,4374.743652,4280.0,4343.589844,4391.025879,4399.743652,4417.563965,4458.205078,4411.410156,4362.692383,4409.358887,4233.461426,4414.102539
1698668161.043363,0.0,4303.589844,4373.333496,4278.974121,4342.436035,4389.487305,4395.641113,4415.256348,4456.538574,4408.717773,4362.436035,4412.179688,4241.410156,4415.128418
1698668161.051171,0.0,4309.230957,4379.743652,4289.230957,4347.436035,4391.794922,4400.512695,4416.025879,4456.922852,4410.0,4365.512695,4413.717773,4230.256348,4419.230957
1698668161.058979,0.0,4312.436035,4380.128418,4298.333496,4350.0,4391.794922,4402.563965,4414.230957,4465.0,4414.358887,4367.307617,4411.666504,4233.205078,4420.641113
1698668161.066788,0.0,4312.436035,4376.282227,4295.256348,4346.666504,4388.717773,4401.282227,4411.410156,4462.692383,4413.717773,4365.897461,4410.128418,4230.512695,4422.820313
1698668161.074596,0.0,4308.333496,4375.384766,4290.0,4346.025879,4389.743652,4402.94873,4414.102539,4457.307617,4411.153809,4367.692383,4412.820313,4221.025879,4422.05127
1698668161.082404,0.0,4305.128418,4371.922852,4282.94873,4348.846191,4392.692383,4399.358887,4415.769043,4462.05127,4411.410156,4369.102539,4413.333496,4234.871582,4419.871582
1698668161.090212,0.0,4311.410156,4370.769043,4281.794922,4347.692383,4392.692383,4394.871582,4413.205078,4464.871582,4413.077148,4367.563965,4410.0,4240.128418,4419.487305
1698668161.098021,0.0,4315.128418,4373.974121,4292.307617,4346.282227,4392.05127,4398.717773,4413.461426,4462.94873,4413.461426,4367.179688,4406.922852,4222.692383,4419.358887
1698668161.105829,0.0,4312.820313,4376.410156,4299.743652,4347.94873,4392.179688,4404.615234,4416.282227,4464.615234,4414.230957,4366.794922,4403.717773,4221.922852,4419.743652
1698668161.113637,0.0,4311.666504,4377.820313,4296.410156,4348.461426,4392.692383,4401.538574,4415.512695,4465.641113,4415.897461,4365.384766,4405.128418,4234.487305,4420.897461
1698668161.121445,0.0,4307.436035,4377.563965,4285.641113,4343.717773,4393.333496,4394.871582,4415.128418,4458.717773,4415.769043,4368.077148,4412.307617,4232.05127,4421.538574
1698668161.129254,0.0,4307.179688,4372.94873,4282.307617,4343.333496,4391.922852,4398.205078,4416.282227,4459.487305,4414.871582,4369.358887,4412.94873,4227.692383,4418.461426
1698668161.137062,0.0,4319.358887,4371.410156,4289.230957,4348.717773,4389.871582,4403.846191,4413.205078,4469.743652,4417.94873,4365.641113,4407.563965,4226.794922,4416.410156
1698668161.14487,0.0,4322.179688,4374.230957,4294.230957,4348.846191,4389.871582,4401.410156,4412.05127,4470.512695,4419.487305,4364.358887,4407.436035,4229.487305,4416.538574
1698668161.152678,0.0,4310.512695,4370.512695,4284.615234,4344.615234,4390.897461,4397.94873,4414.230957,4464.230957,4417.820313,4365.641113,4414.358887,4234.743652,4413.333496
1698668161.160486,0.0,4307.94873,4369.743652,4280.512695,4345.641113,4390.512695,4398.461426,4413.589844,4461.666504,4419.358887,4365.769043,4415.897461,4228.077148,4411.153809
1698668161.168295,0.0,4312.436035,4374.487305,4293.205078,4348.717773,4389.615234,4399.102539,4414.487305,4462.820313,4423.205078,4367.563965,4408.846191,4225.641113,4411.538574
1698668161.176103,0.0,4313.589844,4375.0,4294.358887,4346.794922,4391.666504,4400.128418,4415.641113,4466.538574,4426.282227,4371.666504,4406.922852,4225.256348,4410.641113
1698668161.183911,0.0,4312.94873,4370.512695,4288.974121,4347.436035,4393.461426,4398.846191,4412.436035,4468.333496,4426.794922,4372.692383,4408.205078,4231.922852,4411.666504
1698668161.191719,0.0,4312.436035,4368.589844,4289.871582,4349.358887,4390.128418,4397.307617,4412.820313,4464.615234,4424.230957,4370.256348,4407.436035,4238.846191,4411.410156
1698668161.199527,0.0,4317.436035,4375.256348,4290.897461,4346.922852,4388.974121,4398.974121,4415.769043,4461.282227,4423.717773,4373.077148,4408.846191,4226.666504,4409.102539
1698668161.207336,0.0,4311.025879,4378.846191,4288.974121,4346.666504,4390.512695,4398.333496,4416.538574,4461.153809,4426.666504,4375.641113,4411.282227,4232.563965,4410.641113
1698668161.215144,0.0,4303.333496,4373.333496,4284.743652,4346.666504,4390.512695,4397.820313,4415.128418,4463.846191,4428.974121,4370.769043,4411.153809,4242.307617,4412.94873
1698668161.222952,0.0,4309.230957,4374.487305,4286.410156,4344.615234,4391.794922,4400.384766,4412.692383,4465.897461,4428.974121,4369.358887,4412.820313,4230.128418,4411.538574
1698668161.23076,0.0,4305.256348,4379.230957,4288.717773,4343.717773,4393.717773,4398.461426,4414.230957,4465.128418,4428.077148,4374.358887,4413.717773,4230.641113,4405.384766
1698668161.238568,0.0,4305.256348,4375.384766,4290.256348,4347.94873,4392.05127,4397.692383,4416.922852,4467.563965,4428.205078,4375.897461,4410.769043,4231.794922,4405.512695
1698668161.246377,0.0,4316.153809,4373.205078,4292.94873,4349.871582,4391.282227,4402.436035,4415.769043,4470.384766,4430.128418,4371.153809,4410.897461,4230.128418,4408.846191
1698668161.254185,0.0,4312.05127,4376.538574,4290.128418,4346.153809,4392.179688,4404.102539,4414.871582,4468.589844,4430.897461,4372.179688,4410.0,4227.692383,4402.94873
1698668161.261993,0.0,4301.922852,4377.692383,4288.077148,4347.179688,4390.0,4400.256348,4414.230957,4467.05127,4428.717773,4375.769043,4411.794922,4218.077148,4402.563965
1698668161.269802,0.0,4308.974121,4377.94873,4289.230957,4348.461426,4389.871582,4399.230957,4413.333496,4471.794922,4425.641113,4370.128418,4411.282227,4226.410156,4405.769043
1698668161.27761,0.0,4318.461426,4375.897461,4287.05127,4345.256348,4392.179688,4400.384766,4416.025879,4478.205078,4427.820313,4368.846191,4404.102539,4234.358887,4400.512695
1698668161.285418,0.0,4314.615234,4372.820313,4278.461426,4345.0,4391.794922,4399.230957,4414.230957,4478.846191,4428.077148,4369.487305,4407.563965,4233.717773,4399.743652
1698668161.293226,0.0,4315.384766,4372.563965,4282.307617,4348.717773,4391.410156,4401.538574,4412.179688,4474.743652,4424.358887,4366.666504,4409.230957,4231.282227,4402.179688
1698668161.301034,0.0,4324.487305,4373.333496,4298.333496,4350.0,4393.205078,4405.769043,4415.769043,4481.538574,4424.358887,4366.282227,4400.256348,4220.769043,4399.358887
1698668161.308843,0.0,4322.820313,4372.179688,4298.461426,4347.179688,4393.333496,4403.589844,4414.871582,4489.358887,4425.256348,4366.794922,4398.974121,4220.512695,4400.512695
1698668161.316651,0.0,4309.871582,4372.179688,4289.743652,4345.641113,4392.692383,4400.384766,4414.615234,4478.461426,4425.256348,4369.615234,4404.102539,4224.358887,4405.0
1698668161.324459,0.0,4304.743652,4377.179688,4290.512695,4345.897461,4393.974121,4403.077148,4420.128418,4471.538574,4423.333496,4368.333496,4407.820313,4228.717773,4399.358887
1698668161.332267,0.0,4303.461426,4378.333496,4288.589844,4344.615234,4391.794922,4401.794922,4421.794922,4473.205078,4421.282227,4365.769043,4408.974121,4231.922852,4395.0
1698668161.340075,0.0,4300.256348,4374.487305,4281.922852,4343.461426,4388.205078,4396.153809,4417.436035,4469.102539,4421.666504,4364.615234,4407.307617,4219.487305,4399.358887
1698668161.347884,0.0,4307.563965,4375.384766,4281.794922,4345.128418,4391.025879,4396.922852,4414.358887,4469.615234,4419.743652,4364.487305,4407.563965,4215.256348,4402.179688
1698668161.355692,0.0,4317.179688,4375.256348,4287.436035,4346.922852,4395.128418,4402.307617,4412.94873,4475.128418,4417.563965,4369.743652,4406.410156,4226.153809,4400.0
1698668161.3635,0.0,4317.179688,4375.384766,4293.589844,4348.077148,4393.205078,4407.05127,4413.846191,4473.846191,4418.589844,4369.615234,4399.487305,4214.743652,4396.282227
1698668161.371308,0.0,4314.230957,4379.358887,4293.333496,4347.820313,4391.538574,4406.410156,4417.692383,4471.922852,4419.615234,4363.077148,4397.436035,4201.922852,4400.384766
1698668161.379116,0.0,4308.846191,4379.230957,4287.307617,4345.512695,4393.077148,4401.538574,4417.307617,4469.871582,4418.333496,4361.794922,4403.205078,4220.0,4403.333496
1698668161.386925,0.0,4303.846191,4377.820313,4288.717773,4345.512695,4393.205078,4400.128418,4416.794922,4465.897461,4418.205078,4363.974121,4404.358887,4238.717773,4397.692383
1698668161.394733,0.0,4305.384766,4382.692383,4297.307617,4345.897461,4391.922852,4403.205078,4418.461426,4462.820313,4416.410156,4360.0,4401.666504,4219.102539,4397.436035
1698668161.402541,0.0,4311.410156,4382.179688,4294.871582,4344.871582,4391.538574,4405.0,4418.077148,4463.077148,4414.615234,4358.846191,4402.563965,4192.179688,4400.0
1698668161.410349,0.0,4312.692383,4377.307617,4283.974121,4347.307617,4392.307617,4401.922852,4415.897461,4465.256348,4415.384766,4363.974121,4404.358887,4207.820313,4401.410156
1698668161.418157,0.0,4309.230957,4380.641113,4284.871582,4349.230957,4394.102539,4400.512695,4415.512695,4467.692383,4415.769043,4363.846191,4401.666504,4249.487305,4405.256348
1698668161.425966,0.0,4307.692383,4381.025879,4290.384766,4345.384766,4393.974121,4404.358887,4417.179688,4467.179688,4415.897461,4361.282227,4398.589844,4240.769043,4402.820313
1698668161.433774,0.0,4310.0,4377.692383,4292.05127,4345.384766,4393.077148,4407.436035,4417.05127,4466.025879,4414.871582,4360.0,4400.897461,4208.589844,4400.641113
1698668161.441582,0.0,4310.128418,4377.692383,4292.05127,4348.974121,4395.256348,4403.846191,4418.846191,4466.794922,4414.230957,4360.897461,4402.692383,4217.436035,4400.897461
1698668161.449391,0.0,4313.974121,4376.666504,4288.717773,4347.179688,4394.230957,4401.282227,4419.358887,4465.256348,4414.743652,4361.410156,4398.589844,4230.897461,4400.769043
1698668161.457199,0.0,4314.102539,4377.820313,4282.436035,4344.743652,4389.230957,4403.077148,4415.897461,4464.871582,4412.05127,4357.563965,4397.692383,4228.205078,4406.153809
1698668161.465007,0.0,4302.05127,4382.692383,4279.487305,4344.487305,4389.743652,4401.410156,4417.05127,4465.128418,4411.025879,4357.820313,4400.769043,4226.410156,4406.538574
1698668161.472815,0.0,4302.307617,4385.384766,4283.846191,4345.256348,4392.692383,4398.077148,4420.128418,4459.358887,4410.897461,4359.743652,4402.692383,4225.512695,4404.743652
1698668161.480623,0.0,4309.487305,4383.589844,4288.205078,4347.05127,4391.282227,4401.410156,4417.692383,4457.563965,4410.897461,4359.487305,4402.307617,4227.692383,4406.282227
1698668161.488432,0.0,4299.230957,4383.717773,4292.179688,4347.436035,4389.743652,4404.230957,4415.256348,4458.717773,4412.179688,4359.487305,4401.153809,4209.102539,4402.94873
1698668161.49624,0.0,4300.256348,4382.692383,4293.461426,4347.179688,4393.974121,4401.922852,4415.897461,4457.179688,4406.922852,4357.307617,4402.94873,4217.820313,4403.717773
1698668161.504048,0.0,4316.153809,4377.820313,4286.153809,4346.794922,4397.05127,4402.179688,4415.0,4462.563965,4408.974121,4358.333496,4403.205078,4252.820313,4407.820313
1698668161.511856,0.0,4316.794922,4372.563965,4279.358887,4347.307617,4394.487305,4405.128418,4413.205078,4467.820313,4413.205078,4356.922852,4402.692383,4236.794922,4407.436035
1698668161.519664,0.0,4308.846191,4375.0,4282.436035,4347.05127,4392.307617,4402.05127,4414.871582,4460.128418,4403.205078,4349.871582,4405.128418,4201.538574,4407.94873
1698668161.527473,0.0,4308.333496,4381.410156,4284.871582,4345.897461,4392.692383,4397.179688,4414.358887,4455.897461,4401.282227,4352.179688,4406.025879,4201.282227,4408.974121
1698668161.535281,0.0,4308.846191,4379.615234,4281.922852,4346.153809,4391.538574,4399.615234,4414.358887,4458.589844,4410.0,4357.05127,4406.922852,4233.461426,4408.461426
1698668161.543089,0.0,4311.794922,4377.692383,4284.230957,4347.820313,4391.025879,4402.94873,4415.769043,4455.641113,4409.615234,4356.282227,4405.641113,4263.205078,4410.512695
1698668161.550897,0.0,4316.538574,4378.974121,4284.230957,4347.94873,4392.692383,4403.077148,4413.461426,4455.0,4406.922852,4357.05127,4403.974121,4247.563965,4410.512695
1698668161.558705,0.0,4315.641113,4375.128418,4280.769043,4347.94873,4391.666504,4402.05127,4411.922852,4460.512695,4411.922852,4357.563965,4406.153809,4198.461426,4412.179688
1698668161.566514,0.0,4317.692383,4376.025879,4290.128418,4351.025879,4390.128418,4402.179688,4415.0,4461.538574,4413.974121,4357.692383,4407.94873,4163.461426,4416.153809
1698668161.574322,0.0,4318.717773,4384.230957,4298.974121,4352.05127,4392.179688,4404.102539,4416.922852,4459.615234,4410.0,4360.512695,4408.846191,4208.974121,4412.563965
1698668161.58213,0.0,4307.94873,4382.179688,4286.666504,4349.358887,4390.641113,4400.256348,4415.897461,4455.641113,4408.717773,4362.94873,4410.641113,4286.538574,4412.820313
1698668161.589938,0.0,4303.589844,4375.769043,4274.871582,4347.94873,4389.230957,4396.538574,4415.897461,4454.358887,4409.871582,4362.436035,4409.615234,4271.153809,4420.0
1698668161.597746,0.0,4310.641113,4379.102539,4283.461426,4348.205078,4391.922852,4400.641113,4413.974121,4460.384766,4411.538574,4360.641113,4408.205078,4195.897461,4417.436035
1698668161.605555,0.0,4310.512695,4382.05127,4289.487305,4347.563965,4393.461426,4403.974121,4414.358887,4459.230957,4411.025879,4361.538574,4409.358887,4166.025879,4415.384766
1698668161.613363,0.0,4302.436035,4385.256348,4290.384766,4347.692383,4392.179688,4401.153809,4419.871582,4453.589844,4410.512695,4364.230957,4409.102539,4211.410156,4420.256348
1698668161.621171,0.0,4305.0,4387.179688,4291.666504,4349.102539,4391.794922,4399.743652,4416.666504,4456.025879,4409.358887,4363.077148,4409.743652,4272.179688,4420.384766
1698668161.62898,0.0,4312.307617,4379.230957,4282.307617,4346.410156,4391.922852,4400.0,4410.769043,4458.461426,4407.94873,4360.897461,4411.410156,4260.384766,4418.333496
1698668161.636788,0.0,4308.461426,4372.563965,4275.128418,4345.128418,4391.282227,4395.512695,4412.94873,4460.128418,4411.794922,4362.563965,4412.820313,4209.743652,4418.846191
1698668161.644596,0.0,4303.589844,4375.897461,4285.256348,4347.692383,4390.384766,4396.025879,4415.641113,4464.615234,4414.487305,4366.282227,4413.333496,4194.230957,4422.94873
1698668161.652404,0.0,4310.512695,4379.358887,4297.179688,4347.563965,4392.692383,4402.05127,4414.615234,4467.05127,4412.820313,4365.512695,4411.410156,4221.025879,4423.974121
1698668161.660212,0.0,4321.666504,4368.846191,4291.282227,4347.820313,4394.615234,4403.333496,4413.205078,4467.692383,4412.692383,4365.769043,4408.717773,4251.666504,4420.897461
1698668161.668021,0.0,4322.307617,4363.077148,4283.333496,4349.230957,4392.436035,4402.563965,4413.077148,4469.102539,4414.230957,4368.461426,4407.820313,4238.077148,4424.102539
1698668161.675829,0.0,4314.102539,4376.153809,4291.282227,4348.589844,4389.871582,4399.230957,4413.846191,4466.666504,4414.358887,4367.94873,4410.0,4218.205078,4424.102539
1698668161.683637,0.0,4307.692383,4378.589844,4291.025879,4346.666504,4391.153809,4397.05127,4412.307617,4461.025879,4414.230957,4367.563965,4412.563965,4234.743652,4418.205078
1698668161.691445,0.0,4306.666504,4371.538574,4277.820313,4347.820313,4392.820313,4399.487305,4410.384766,4458.589844,4416.410156,4365.769043,4413.333496,4251.410156,4420.256348
1698668161.699253,0.0,4314.230957,4371.282227,4279.102539,4348.589844,4391.410156,4398.717773,4412.820313,4466.025879,4418.589844,4364.102539,4410.384766,4236.410156,4421.538574
1698668161.707062,0.0,4318.846191,4373.589844,4290.384766,4347.436035,4390.128418,4397.94873,4414.358887,4472.820313,4418.205078,4365.512695,4407.05127,4220.897461,4417.307617
1698668161.71487,0.0,4312.436035,4377.179688,4294.871582,4348.205078,4392.307617,4401.538574,4411.794922,4468.205078,4419.487305,4366.666504,4407.94873,4223.717773,4417.820313
1698668161.722678,0.0,4312.307617,4372.307617,4288.717773,4348.589844,4393.589844,4401.153809,4411.666504,4465.256348,4421.153809,4366.666504,4409.743652,4236.410156,4417.563965
1698668161.730486,0.0,4318.205078,4366.922852,4283.846191,4350.256348,4391.794922,4398.974121,4411.922852,4469.743652,4420.769043,4366.666504,4408.589844,4246.794922,4413.333496
1698668161.738294,0.0,4315.128418,4372.563965,4288.717773,4349.358887,4392.05127,4400.769043,4410.384766,4471.666504,4423.077148,4367.820313,4406.794922,4232.05127,4410.384766
1698668161.746103,0.0,4307.820313,4375.769043,4292.05127,4346.794922,4394.487305,4397.436035,4412.692383,4465.256348,4422.05127,4368.077148,4408.333496,4228.077148,4408.974121
1698668161.753911,0.0,4302.692383,4378.077148,4279.230957,4347.563965,4393.846191,4397.563965,4418.974121,4460.0,4420.769043,4369.358887,4407.820313,4257.692383,4411.922852
1698668161.761719,0.0,4305.384766,4385.256348,4270.256348,4345.128418,4392.820313,4408.717773,4421.794922,4468.205078,4423.589844,4367.94873,4408.589844,4197.179688,4422.307617
1698668161.769527,0.0,4314.230957,4385.512695,4282.563965,4340.512695,4396.025879,4412.05127,4419.871582,4467.436035,4410.0,4356.794922,4407.436035,4111.666504,4425.641113
1698668161.777336,0.0,4322.179688,4374.102539,4300.128418,4342.94873,4395.512695,4400.512695,4418.589844,4453.205078,4391.410156,4351.666504,4404.102539,4130.897461,4414.230957
1698668161.785144,0.0,4317.563965,4377.436035,4307.307617,4346.666504,4390.384766,4396.410156,4418.846191,4449.871582,4395.769043,4357.436035,4411.666504,4164.615234,4410.256348
1698668161.792952,0.0,4311.666504,4385.256348,4303.205078,4346.025879,4391.025879,4402.692383,4416.025879,4448.205078,4397.05127,4356.025879,4415.769043,4155.769043,4412.692383
1698668161.80076,0.0,4319.615234,4372.05127,4296.025879,4348.205078,4393.333496,4400.0,4413.333496,4444.743652,4390.769043,4354.358887,4412.94873,4148.717773,4413.077148
1698668161.808569,0.0,4321.282227,4367.307617,4294.743652,4349.358887,4391.538574,4396.153809,4414.487305,4450.384766,4396.794922,4358.205078,4413.333496,4170.256348,4417.563965
1698668161.816377,0.0,4318.461426,4377.436035,4299.743652,4347.05127,4389.871582,4399.871582,4415.512695,4451.410156,4397.05127,4354.615234,4413.717773,4176.282227,4416.922852
1698668161.824185,0.0,4317.563965,4380.512695,4299.487305,4349.102539,4391.410156,4400.897461,4416.410156,4447.05127,4396.025879,4356.410156,4412.94873,4163.333496,4412.563965
1698668161.831993,0.0,4312.436035,4381.153809,4293.205078,4346.922852,4393.717773,4401.666504,4418.717773,4447.307617,4398.846191,4359.358887,4409.743652,4166.666504,4416.025879
1698668161.839801,0.0,4315.384766,4380.897461,4295.128418,4342.820313,4393.461426,4405.128418,4416.282227,4453.717773,4397.563965,4355.0,4408.846191,4162.94873,4419.615234
1698668161.84761,0.0,4315.641113,4379.487305,4294.487305,4346.282227,4393.077148,4403.974121,4413.077148,4458.589844,4398.205078,4356.538574,4410.384766,4159.743652,4415.641113
1698668161.855418,0.0,4311.153809,4381.410156,4295.128418,4347.436035,4394.102539,4401.666504,4414.615234,4450.512695,4396.153809,4356.282227,4412.436035,4155.769043,4412.820313
1698668161.863226,0.0,4312.05127,4378.461426,4301.794922,4343.717773,4394.871582,4399.871582,4415.769043,4444.615234,4398.589844,4353.846191,4413.717773,4157.692383,4412.563965
1698668161.871034,0.0,4311.794922,4370.769043,4291.666504,4343.846191,4391.794922,4398.077148,4412.94873,4450.897461,4403.589844,4357.05127,4414.358887,4173.717773,4412.307617
1698668161.878842,0.0,4305.128418,4373.846191,4283.717773,4347.307617,4390.128418,4399.615234,4411.538574,4451.153809,4401.666504,4357.436035,4414.615234,4167.820313,4412.94873
1698668161.886651,0.0,4306.025879,4377.05127,4295.512695,4347.563965,4392.820313,4398.589844,4412.94873,4448.333496,4405.256348,4358.077148,4413.461426,4161.410156,4409.743652
1698668161.894459,0.0,4316.282227,4374.871582,4300.128418,4346.025879,4393.333496,4400.512695,4415.0,4452.436035,4409.487305,4360.897461,4411.025879,4172.692383,4411.153809
1698668161.902267,0.0,4313.846191,4375.769043,4290.769043,4346.153809,4390.769043,4405.0,4414.487305,4462.05127,4409.871582,4360.897461,4407.307617,4167.179688,4413.589844
1698668161.910075,0.0,4300.384766,4381.666504,4285.512695,4346.794922,4390.512695,4401.153809,4415.0,4464.487305,4415.128418,4362.307617,4411.922852,4150.769043,4409.230957
1698668161.917884,0.0,4298.333496,4384.615234,4289.358887,4349.871582,4391.794922,4398.333496,4418.461426,4453.205078,4412.692383,4363.717773,4420.641113,4160.256348,4409.871582
1698668161.925692,0.0,4309.487305,4376.666504,4290.769043,4349.743652,4391.666504,4403.077148,4417.05127,4456.538574,4404.743652,4358.717773,4417.05127,4170.384766,4410.512695
1698668161.9335,0.0,4318.205078,4370.0,4286.282227,4347.436035,4391.538574,4401.410156,4411.794922,4469.743652,4411.153809,4357.820313,4412.05127,4167.307617,4410.0
1698668161.941308,0.0,4318.205078,4373.077148,4287.820313,4349.102539,4393.205078,4396.538574,4411.025879,4463.461426,4412.563965,4358.461426,4415.384766,4172.307617,4410.256348
1698668161.949116,0.0,4313.461426,4377.692383,4290.769043,4350.256348,4393.589844,4401.922852,4412.94873,4455.897461,4402.05127,4353.077148,4416.410156,4162.05127,4406.025879
1698668161.956925,0.0,4306.538574,4377.179688,4287.563965,4348.461426,4392.179688,4404.102539,4414.102539,4461.410156,4404.487305,4354.487305,4413.846191,4164.615234,4405.641113
1698668161.964733,0.0,4307.692383,4372.820313,4283.461426,4348.974121,4392.05127,4398.589844,4413.461426,4466.410156,4410.512695,4355.897461,4413.077148,4187.94873,4407.563965
1698668161.972541,0.0,4310.897461,4372.563965,4285.128418,4349.871582,4392.307617,4397.94873,4412.179688,4462.94873,4408.077148,4353.205078,4413.589844,4179.358887,4408.077148
1698668161.980349,0.0,4304.102539,4377.307617,4288.717773,4346.025879,4391.410156,4401.025879,4412.05127,4458.461426,4406.410156,4356.922852,4411.410156,4159.871582,4404.743652
1698668161.988158,0.0,4299.871582,4382.820313,4293.461426,4346.282227,4392.307617,4403.717773,4416.794922,4461.410156,4405.384766,4356.922852,4408.077148,4148.461426,4402.820313
1698668161.995966,0.0,4303.974121,4381.794922,4296.410156,4349.615234,4393.717773,4403.077148,4419.871582,4467.05127,4404.102539,4349.871582,4413.205078,4176.410156,4408.461426
1698668162.003774,0.0,4305.256348,4380.641113,4295.769043,4347.94873,4392.563965,4399.487305,4417.94873,4460.0,4403.589844,4348.717773,4413.846191,4212.05127,4406.410156
1698668162.011582,0.0,4299.615234,4376.282227,4286.922852,4346.922852,4391.410156,4396.666504,4417.179688,4450.256348,4402.820313,4352.05127,4407.692383,4192.307617,4403.077148
1698668162.01939,0.0,4295.128418,4373.846191,4278.717773,4348.333496,4393.717773,4397.05127,4418.717773,4451.922852,4402.05127,4351.025879,4411.666504,4154.487305,4407.307617
1698668162.027199,0.0,4302.94873,4380.641113,4287.179688,4347.820313,4393.846191,4401.410156,4419.487305,4459.230957,4402.179688,4351.538574,4412.436035,4145.128418,4408.205078
1698668162.035007,0.0,4310.384766,4382.94873,4294.743652,4347.820313,4392.307617,4402.820313,4416.794922,4467.05127,4404.102539,4355.897461,4405.128418,4169.615234,4405.512695
1698668162.042815,0.0,4303.846191,4385.0,4294.487305,4351.538574,4393.205078,4400.769043,4417.820313,4458.846191,4405.769043,4354.230957,4406.794922,4189.102539,4406.025879
1698668162.050623,0.0,4302.820313,4386.410156,4296.666504,4351.538574,4396.025879,4401.922852,4417.436035,4449.871582,4406.922852,4352.563965,4408.589844,4171.025879,4406.922852
1698668162.058432,0.0,4312.05127,4379.743652,4294.230957,4348.461426,4397.05127,4403.846191,4412.94873,4466.410156,4407.179688,4354.102539,4405.512695,4157.563965,4406.794922
1698668162.06624,0.0,4304.871582,4378.717773,4288.077148,4347.94873,4393.846191,4402.94873,4413.077148,4467.05127,4405.128418,4351.410156,4408.461426,4169.743652,4410.512695
1698668162.074048,0.0,4294.358887,4383.205078,4288.717773,4347.307617,4393.205078,4402.563965,4416.410156,4449.615234,4405.641113,4350.769043,4413.717773,4184.102539,4411.666504
1698668162.081856,0.0,4304.230957,4381.282227,4288.717773,4346.282227,4394.871582,4403.846191,4417.692383,4451.410156,4406.538574,4352.820313,4411.153809,4177.05127,4408.461426
1698668162.089664,0.0,4312.307617,4375.256348,4280.512695,4346.410156,4391.794922,4401.025879,4413.846191,4458.589844,4406.538574,4353.717773,4406.410156,4162.179688,4411.922852
1698668162.097473,0.0,4305.641113,4373.589844,4278.589844,4347.692383,4390.512695,4398.717773,4410.512695,4458.077148,4410.512695,4356.025879,4405.769043,4177.563965,4415.256348
1698668162.105281,0.0,4301.410156,4376.794922,4284.871582,4347.820313,4394.487305,4401.410156,4413.846191,4458.589844,4411.025879,4355.256348,4406.922852,4208.846191,4411.410156
1698668162.113089,0.0,4306.025879,4379.102539,4287.179688,4348.205078,4394.358887,4401.410156,4417.179688,4460.256348,4407.94873,4353.589844,4409.743652,4191.922852,4412.179688
1698668162.120897,0.0,4306.025879,4375.769043,4285.128418,4347.563965,4392.05127,4398.333496,4417.05127,4457.820313,4409.615234,4353.974121,4411.666504,4139.871582,4414.102539
1698668162.128705,0.0,4301.282227,4379.615234,4288.717773,4346.153809,4394.358887,4396.666504,4416.666504,4457.692383,4410.128418,4355.0,4410.256348,4132.563965,4410.0
1698668162.136514,0.0,4302.94873,4387.563965,4296.794922,4348.333496,4395.769043,4399.102539,4417.179688,4459.743652,4407.94873,4356.538574,4408.846191,4189.487305,4413.077148
1698668162.144322,0.0,4311.666504,4382.05127,4292.436035,4349.743652,4394.487305,4402.563965,4416.410156,4453.846191,4408.974121,4356.922852,4408.077148,4225.769043,4417.94873
1698668162.15213,0.0,4318.205078,4374.487305,4285.128418,4348.461426,4393.717773,4402.436035,4415.512695,4454.102539,4412.436035,4357.820313,4409.358887,4187.307617,4413.461426
1698668162.159938,0.0,4312.692383,4377.179688,4289.615234,4348.461426,4392.820313,4399.487305,4415.256348,4459.358887,4413.461426,4358.974121,4410.256348,4135.128418,4412.05127
1698668162.167747,0.0,4309.615234,4378.333496,4290.256348,4349.102539,4391.538574,4400.128418,4415.512695,4456.153809,4411.025879,4356.922852,4410.256348,4134.487305,4416.538574
1698668162.175555,0.0,4311.794922,4374.102539,4281.410156,4347.436035,4391.282227,4403.077148,4416.666504,4456.410156,4411.410156,4357.307617,4409.615234,4183.205078,4417.436035
1698668162.183363,0.0,4313.333496,4371.794922,4280.128418,4346.538574,4390.641113,4401.666504,4414.358887,4462.563965,4412.05127,4361.410156,4408.461426,4212.563965,4419.487305
1698668162.191171,0.0,4312.820313,4372.05127,4285.512695,4348.717773,4390.641113,4399.487305,4411.410156,4464.871582,4413.717773,4359.871582,4408.461426,4178.846191,4420.384766
1698668162.19898,0.0,4305.384766,4371.282227,4283.589844,4348.974121,4391.666504,4398.077148,4409.230957,4463.846191,4414.487305,4358.077148,4411.410156,4152.820313,4417.820313
1698668162.206788,0.0,4304.230957,4368.974121,4281.666504,4349.102539,4392.307617,4398.333496,4410.128418,4461.410156,4408.974121,4361.153809,4413.205078,4159.871582,4421.666504
1698668162.214596,0.0,4314.487305,4368.333496,4287.307617,4350.512695,4392.94873,4400.128418,4415.128418,4464.743652,4409.871582,4359.871582,4411.538574,4176.922852,4421.025879
1698668162.222404,0.0,4311.922852,4378.077148,4288.205078,4349.615234,4393.589844,4401.666504,4415.512695,4464.358887,4413.333496,4357.820313,4411.794922,4190.0,4417.05127
1698668162.230212,0.0,4300.512695,4380.0,4283.333496,4346.538574,4392.820313,4402.05127,4414.743652,4454.487305,4411.153809,4361.410156,4412.94873,4180.897461,4418.717773
1698668162.238021,0.0,4307.94873,4369.230957,4281.153809,4346.282227,4390.897461,4399.615234,4414.615234,4456.410156,4411.282227,4364.487305,4412.179688,4171.410156,4419.358887
1698668162.245829,0.0,4319.615234,4367.563965,4282.820313,4348.205078,4392.307617,4399.358887,4412.94873,4468.589844,4413.717773,4365.128418,4409.358887,4169.487305,4421.153809
1698668162.253637,0.0,4314.102539,4375.0,4291.025879,4348.717773,4392.94873,4398.589844,4414.102539,4467.94873,4416.666504,4365.128418,4406.025879,4166.794922,4418.846191
1698668162.261445,0.0,4308.589844,4379.871582,4295.384766,4350.128418,4390.0,4393.846191,4414.487305,4458.974121,4418.205078,4365.512695,4408.333496,4169.615234,4420.128418
1698668162.269253,0.0,4308.589844,4374.230957,4286.794922,4348.205078,4391.922852,4391.410156,4412.692383,4461.282227,4416.153809,4366.153809,4413.846191,4177.307617,4423.077148
1698668162.277062,0.0,4311.410156,4364.871582,4281.538574,4346.282227,4395.128418,4394.743652,4412.692383,4465.769043,4415.769043,4364.358887,4411.410156,4169.743652,4418.589844
1698668162.28487,0.0,4314.230957,4367.179688,4288.077148,4348.461426,4393.717773,4399.871582,4412.563965,4461.666504,4417.05127,4364.743652,4407.94873,4158.205078,4422.94873
1698668162.292678,0.0,4316.410156,4369.871582,4288.589844,4347.692383,4392.307617,4402.692383,4411.794922,4463.077148,4417.179688,4368.077148,4410.0,4161.025879,4425.384766
1698668162.300486,0.0,4318.974121,4368.205078,4286.410156,4346.410156,4393.974121,4402.820313,4413.717773,4464.615234,4417.179688,4367.820313,4412.563965,4157.820313,4419.230957
1698668162.308294,0.0,4311.666504,4371.794922,4294.230957,4347.820313,4392.563965,4401.922852,4413.974121,4458.717773,4416.538574,4365.512695,4410.897461,4157.563965,4416.794922
1698668162.316103,0.0,4303.333496,4373.717773,4296.025879,4348.589844,4391.025879,4400.769043,4412.820313,4458.717773,4416.025879,4368.589844,4411.282227,4158.205078,4415.0
1698668162.323911,0.0,4302.692383,4373.717773,4285.256348,4347.05127,4393.974121,4398.589844,4415.256348,4460.641113,4415.769043,4370.256348,4417.820313,4161.538574,4414.615234
1698668162.331719,0.0,4307.05127,4379.871582,4283.333496,4345.769043,4395.128418,4397.94873,4417.436035,4459.615234,4414.743652,4366.922852,4415.897461,4167.436035,4413.205078
1698668162.339527,0.0,4313.205078,4376.153809,4288.205078,4346.153809,4391.922852,4399.230957,4416.538574,4462.179688,4417.179688,4367.179688,4411.025879,4163.974121,4411.538574
1698668162.347336,0.0,4313.333496,4370.641113,4287.820313,4347.307617,4391.025879,4398.846191,4413.717773,4463.846191,4419.615234,4367.820313,4415.897461,4167.692383,4414.358887
1698668162.355144,0.0,4305.0,4374.871582,4289.871582,4347.820313,4394.871582,4398.333496,4411.410156,4459.743652,4417.563965,4368.077148,4417.692383,4161.025879,4413.589844
1698668162.362952,0.0,4297.563965,4372.05127,4290.128418,4346.922852,4394.487305,4396.025879,4413.974121,4457.820313,4418.717773,4371.282227,4412.436035,4158.461426,4409.487305
1698668162.37076,0.0,4300.769043,4372.820313,4287.436035,4348.461426,4391.794922,4392.820313,4415.769043,4455.128418,4421.282227,4370.897461,4414.230957,4176.410156,4410.769043
1698668162.378569,0.0,4310.256348,4375.384766,4289.230957,4348.974121,4392.820313,4394.230957,4414.358887,4458.589844,4420.0,4369.230957,4414.358887,4172.820313,4411.922852
1698668162.386377,0.0,4316.794922,4370.512695,4286.794922,4347.179688,4392.436035,4397.179688,4416.922852,4469.743652,4422.94873,4372.179688,4408.205078,4169.102539,4408.589844
1698668162.394185,0.0,4317.307617,4373.205078,4290.512695,4348.333496,4392.436035,4399.230957,4417.307617,4467.179688,4424.230957,4373.974121,4407.820313,4171.922852,4408.077148
1698668162.401993,0.0,4314.230957,4377.563965,4300.256348,4348.077148,4395.641113,4403.461426,4415.384766,4462.307617,4425.256348,4376.282227,4406.922852,4162.820313,4408.461426
1698668162.409801,0.0,4316.666504,4372.94873,4298.846191,4348.333496,4393.205078,4405.897461,4416.794922,4466.025879,4430.641113,4379.487305,4403.717773,4163.846191,4406.153809
1698668162.41761,0.0,4319.743652,4371.410156,4287.692383,4348.974121,4387.436035,4402.94873,4414.871582,4465.769043,4428.077148,4375.512695,4407.05127,4165.384766,4407.05127
1698668162.425418,0.0,4314.743652,4370.384766,4279.230957,4345.512695,4390.769043,4397.820313,4410.897461,4470.0,4424.615234,4373.461426,4413.717773,4172.820313,4411.153809
1698668162.433226,0.0,4308.974121,4363.077148,4281.538574,4343.589844,4394.871582,4395.897461,4411.153809,4472.179688,4427.05127,4376.410156,4413.717773,4183.077148,4408.717773
1698668162.441034,0.0,4307.307617,4374.358887,4289.487305,4347.05127,4392.05127,4397.436035,4412.820313,4468.205078,4426.794922,4373.717773,4407.436035,4172.94873,4405.256348
1698668162.448842,0.0,4306.282227,4385.0,4291.922852,4347.692383,4390.769043,4400.769043,4414.743652,4472.820313,4427.05127,4372.436035,4406.922852,4166.410156,4405.769043
1698668162.456651,0.0,4311.794922,4374.102539,4290.0,4346.282227,4392.05127,4402.563965,4415.897461,4475.128418,4428.333496,4375.897461,4407.563965,4162.307617,4402.563965
1698668162.464459,0.0,4315.897461,4375.0,4293.589844,4347.436035,4393.846191,4401.410156,4413.974121,4470.897461,4426.538574,4371.794922,4404.871582,4156.794922,4403.205078
1698668162.472267,0.0,4317.05127,4376.025879,4296.538574,4345.897461,4394.871582,4401.153809,4412.94873,4473.589844,4427.692383,4369.102539,4405.769043,4160.512695,4403.589844
1698668162.480075,0.0,4320.256348,4371.282227,4290.897461,4346.410156,4392.307617,4404.102539,4413.589844,4476.666504,4429.230957,4372.436035,4407.94873,4160.897461,4400.0
1698668162.487883,0.0,4318.461426,4375.769043,4289.487305,4349.358887,4390.256348,4403.846191,4414.871582,4475.256348,4424.615234,4371.922852,4404.358887,4152.820313,4400.384766
1698668162.495692,0.0,4314.871582,4378.333496,4293.717773,4350.769043,4391.922852,4400.897461,4414.871582,4472.820313,4422.179688,4372.436035,4401.410156,4158.461426,4401.794922
1698668162.5035,0.0,4315.769043,4372.563965,4289.358887,4350.0,4392.307617,4400.512695,4413.077148,4473.589844,4421.922852,4368.461426,4406.922852,4177.820313,4400.897461
1698668162.511308,0.0,4317.563965,4366.410156,4282.179688,4348.974121,4392.692383,4400.897461,4413.333496,4474.358887,4419.871582,4366.538574,4409.358887,4176.410156,4401.025879
1698668162.519117,0.0,4314.487305,4372.94873,4285.897461,4349.871582,4394.615234,4401.025879,4412.94873,4472.563965,4420.256348,4369.871582,4406.025879,4158.461426,4403.077148
1698668162.526925,0.0,4309.743652,4376.538574,4288.333496,4347.179688,4392.820313,4402.820313,4413.205078,4473.461426,4419.102539,4366.538574,4407.179688,4141.922852,4400.897461
1698668162.534733,0.0,4301.666504,4375.769043,4286.538574,4345.128418,4390.384766,4403.461426,4417.307617,4469.743652,4417.307617,4365.897461,4407.94873,4163.333496,4399.871582
1698668162.542541,0.0,4299.358887,4380.512695,4291.666504,4348.717773,4392.94873,4403.589844,4419.487305,4459.743652,4417.05127,4369.358887,4405.641113,4208.717773,4400.0
1698668162.550349,0.0,4310.641113,4378.205078,4293.205078,4350.769043,4394.102539,4403.974121,4416.410156,4461.410156,4416.153809,4365.512695,4404.358887,4195.0,4401.025879
1698668162.558158,0.0,4315.0,4371.666504,4290.0,4347.307617,4392.05127,4403.205078,4413.461426,4473.205078,4418.333496,4361.794922,4403.333496,4143.461426,4406.153809
1698668162.565966,0.0,4310.128418,4372.436035,4286.794922,4347.820313,4391.922852,4402.563965,4414.871582,4474.102539,4418.589844,4363.333496,4400.641113,4120.128418,4403.461426
1698668162.573774,0.0,4303.717773,4378.333496,4282.692383,4352.307617,4392.820313,4401.282227,4415.897461,4462.563965,4413.589844,4361.922852,4406.153809,4163.205078,4401.666504
1698668162.581582,0.0,4302.692383,4378.333496,4287.692383,4350.128418,4392.94873,4401.153809,4414.487305,4456.153809,4414.230957,4361.282227,4408.717773,4228.333496,4401.922852
1698668162.58939,0.0,4312.94873,4378.974121,4294.871582,4345.512695,4393.461426,4402.436035,4413.589844,4465.128418,4417.05127,4360.512695,4397.05127,4211.025879,4403.077148
1698668162.597199,0.0,4318.333496,4377.179688,4289.743652,4346.282227,4393.333496,4401.666504,4414.871582,4473.974121,4413.589844,4357.436035,4395.897461,4140.0,4410.512695
1698668162.605007,0.0,4310.512695,4373.717773,4283.589844,4350.256348,4392.94873,4402.179688,4415.769043,4463.589844,4411.922852,4361.282227,4405.897461,4102.05127,4405.512695
