type,marker_value,duration,timestamp
phase_Parallel_Universes_Road,recording,8.003424,1698668547.761022
Timestamp,EEG.AF3,EEG.F7,EEG.F3,EEG.FC5,EEG.T7,EEG.P7,EEG.O1,EEG.O2,EEG.P8,EEG.T8,EEG.FC6,EEG.F4,EEG.F8,EEG.AF4
1698668547.761022,0.0,4331.794922,4396.794922,4295.0,4360.641113,4406.025879,4416.794922,4428.974121,4470.897461,4424.871582,4373.461426,4422.563965,4163.589844,4431.666504
1698668547.76883,0.0,4332.563965,4406.153809,4291.922852,4358.717773,4404.871582,4416.025879,4429.358887,4465.512695,4420.0,4369.358887,4423.333496,4152.563965,4428.333496
1698668547.776638,0.0,4329.743652,4392.820313,4276.410156,4353.846191,4404.358887,4414.102539,4433.077148,4466.025879,4419.743652,4370.0,4431.922852,4158.461426,4424.358887
1698668547.784447,0.0,4329.615234,4398.589844,4277.94873,4358.589844,4404.230957,4415.128418,4432.179688,4464.743652,4424.487305,4374.102539,4428.974121,4159.743652,4434.102539
1698668547.792255,0.0,4335.128418,4395.641113,4289.871582,4357.307617,4405.384766,4414.230957,4431.922852,4471.666504,4419.358887,4367.05127,4422.563965,4162.05127,4424.871582
1698668547.800063,0.0,4334.487305,4393.589844,4288.077148,4359.358887,4406.153809,4414.487305,4427.692383,4469.871582,4420.384766,4367.563965,4426.025879,4158.717773,4423.589844
1698668547.807871,0.0,4324.743652,4397.05127,4270.384766,4356.666504,4405.897461,4419.871582,4429.230957,4461.410156,4418.974121,4366.025879,4424.871582,4142.692383,4434.615234
1698668547.815679,0.0,4342.94873,4376.666504,4301.410156,4360.384766,4405.0,4411.282227,4426.794922,4467.179688,4418.205078,4368.589844,4428.717773,4169.487305,4424.487305
1698668547.823488,0.0,4348.205078,4374.871582,4306.922852,4364.102539,4405.512695,4408.974121,4423.461426,4475.0,4431.666504,4383.589844,4420.384766,4205.897461,4412.307617
1698668547.831296,0.0,4331.410156,4390.769043,4274.487305,4359.615234,4405.384766,4415.256348,4427.436035,4472.179688,4431.538574,4383.974121,4417.307617,4240.512695,4428.205078
1698668547.839104,0.0,4327.820313,4391.282227,4282.94873,4363.077148,4403.205078,4410.897461,4425.512695,4465.769043,4434.230957,4386.282227,4426.794922,4253.589844,4438.205078
1698668547.846913,0.0,4327.436035,4394.487305,4287.436035,4360.384766,4404.743652,4412.436035,4426.666504,4469.743652,4442.05127,4388.717773,4414.358887,4215.0,4426.666504
1698668547.854721,0.0,4334.615234,4396.794922,4291.538574,4361.666504,4405.769043,4411.794922,4424.743652,4473.333496,4434.358887,4383.077148,4416.153809,4219.358887,4430.512695
1698668547.862529,0.0,4326.410156,4390.897461,4282.820313,4363.333496,4403.589844,4409.871582,4425.0,4469.871582,4437.94873,4388.846191,4425.641113,4248.333496,4429.487305
1698668547.870337,0.0,4303.846191,4381.666504,4235.384766,4330.256348,4405.128418,4425.769043,4451.666504,4488.846191,4445.769043,4387.94873,4400.128418,4176.410156,4413.846191
1698668547.878145,0.0,4361.153809,4429.743652,4333.589844,4386.538574,4406.282227,4403.974121,4398.589844,4436.282227,4406.666504,4372.563965,4432.563965,4195.0,4455.512695
1698668547.885954,0.0,4321.153809,4369.230957,4285.897461,4372.307617,4401.794922,4405.769043,4421.922852,4465.384766,4439.358887,4400.769043,4436.025879,4376.922852,4406.666504
1698668547.893762,0.0,4238.589844,4319.358887,4076.410156,4211.922852,4413.589844,4478.205078,4553.333496,4577.692383,4474.487305,4380.256348,4315.128418,3985.0,4364.230957
1698668547.90157,0.0,4414.615234,4513.974121,4404.487305,4384.102539,4416.922852,4418.717773,4391.922852,4383.717773,4325.769043,4302.179688,4415.128418,3901.794922,4504.487305
1698668547.909378,0.0,4391.282227,4429.230957,4463.461426,4451.794922,4395.641113,4374.487305,4350.897461,4385.897461,4361.025879,4376.153809,4512.692383,4510.769043,4439.358887
1698668547.917186,0.0,4261.666504,4310.0,4170.512695,4283.589844,4401.025879,4440.256348,4492.820313,4558.461426,4477.820313,4418.205078,4386.922852,4281.538574,4363.589844
1698668547.924995,0.0,4359.102539,4440.897461,4336.153809,4382.179688,4408.461426,4414.743652,4402.563965,4435.384766,4396.153809,4355.769043,4414.871582,4108.077148,4455.0
1698668547.932803,0.0,4333.974121,4382.05127,4329.487305,4385.512695,4399.487305,4404.102539,4410.256348,4462.179688,4418.974121,4384.615234,4450.384766,4348.205078,4418.333496
1698668547.940611,0.0,4318.205078,4367.820313,4252.05127,4342.179688,4404.102539,4420.0,4443.974121,4507.94873,4450.128418,4395.256348,4409.358887,4144.871582,4421.666504
1698668547.948419,0.0,4344.358887,4408.205078,4312.94873,4379.102539,4407.436035,4407.692383,4410.256348,4451.282227,4415.897461,4375.897461,4423.974121,4176.025879,4432.94873
1698668547.956227,0.0,4316.025879,4382.94873,4282.563965,4350.641113,4407.05127,4414.871582,4436.410156,4479.871582,4442.307617,4389.102539,4423.589844,4340.897461,4411.794922
1698668547.964036,0.0,4331.153809,4404.871582,4300.897461,4364.871582,4407.05127,4414.358887,4426.153809,4469.230957,4448.846191,4392.692383,4421.794922,4294.743652,4429.871582
1698668547.971844,0.0,4330.512695,4388.974121,4289.615234,4361.153809,4405.0,4416.794922,4427.820313,4471.666504,4441.153809,4390.897461,4416.153809,4217.05127,4417.692383
1698668547.979652,0.0,4333.077148,4388.589844,4297.436035,4360.641113,4405.0,4413.717773,4427.820313,4479.102539,4448.974121,4397.179688,4418.717773,4171.282227,4422.563965
1698668547.98746,0.0,4327.436035,4400.256348,4304.615234,4362.563965,4405.897461,4413.205078,4425.897461,4473.589844,4454.102539,4400.384766,4414.615234,4186.794922,4416.922852
1698668547.995268,0.0,4327.179688,4388.077148,4299.102539,4356.794922,4405.641113,4418.717773,4428.205078,4479.615234,4450.641113,4395.641113,4413.205078,4275.769043,4406.794922
1698668548.003077,0.0,4330.897461,4391.153809,4298.974121,4360.384766,4406.025879,4419.871582,4423.974121,4483.333496,4453.974121,4396.153809,4415.384766,4300.512695,4417.94873
1698668548.010885,0.0,4326.410156,4393.846191,4289.615234,4355.897461,4406.538574,4414.871582,4425.897461,4486.282227,4451.794922,4397.179688,4408.461426,4226.794922,4417.05127
1698668548.018693,0.0,4332.179688,4388.461426,4301.153809,4359.615234,4405.0,4410.897461,4426.025879,4487.563965,4452.05127,4402.820313,4414.102539,4172.179688,4412.307617
1698668548.026502,0.0,4331.922852,4394.102539,4297.94873,4360.384766,4403.846191,4419.102539,4430.128418,4486.025879,4455.128418,4400.897461,4412.179688,4182.94873,4415.128418
1698668548.03431,0.0,4332.692383,4391.538574,4295.256348,4357.820313,4404.358887,4416.538574,4427.692383,4484.358887,4451.538574,4395.897461,4411.410156,4265.641113,4417.692383
1698668548.042118,0.0,4328.333496,4393.846191,4298.333496,4358.717773,4406.922852,4411.153809,4423.461426,4485.256348,4454.358887,4400.0,4415.256348,4300.128418,4418.717773
1698668548.049926,0.0,4330.512695,4398.717773,4295.512695,4359.615234,4408.717773,4415.769043,4431.282227,4489.743652,4451.410156,4396.922852,4411.025879,4225.384766,4413.461426
1698668548.057734,0.0,4339.487305,4387.692383,4299.230957,4361.666504,4407.307617,4416.025879,4433.717773,4493.077148,4449.871582,4398.974121,4410.512695,4170.641113,4410.0
1698668548.065543,0.0,4330.769043,4391.153809,4292.692383,4359.358887,4405.897461,4415.384766,4428.461426,4488.077148,4453.333496,4400.512695,4408.205078,4184.743652,4416.794922
1698668548.073351,0.0,4331.666504,4389.871582,4298.717773,4358.077148,4403.974121,4412.563965,4426.538574,4484.230957,4451.410156,4395.256348,4410.897461,4250.512695,4416.025879
1698668548.081159,0.0,4336.538574,4388.205078,4303.077148,4358.077148,4403.333496,4413.077148,4428.205078,4487.436035,4454.871582,4398.846191,4413.077148,4284.743652,4414.230957
1698668548.088967,0.0,4330.641113,4395.897461,4293.974121,4356.410156,4405.384766,4416.282227,4430.0,4490.128418,4452.436035,4397.94873,4410.0,4224.358887,4417.820313
1698668548.096775,0.0,4327.692383,4387.179688,4299.615234,4356.922852,4405.256348,4412.692383,4428.717773,4487.94873,4448.589844,4398.846191,4415.256348,4184.743652,4414.615234
1698668548.104584,0.0,4328.589844,4393.846191,4297.05127,4357.307617,4405.512695,4415.897461,4429.102539,4482.05127,4453.333496,4399.230957,4411.410156,4191.538574,4415.128418
1698668548.112392,0.0,4333.974121,4400.384766,4296.794922,4358.077148,4405.256348,4413.974121,4427.692383,4483.717773,4452.820313,4393.846191,4414.102539,4247.05127,4416.538574
1698668548.1202,0.0,4327.94873,4392.307617,4294.871582,4358.589844,4402.563965,4407.820313,4424.743652,4487.692383,4452.94873,4397.563965,4424.487305,4295.641113,4417.307617
1698668548.128008,0.0,4324.230957,4392.820313,4288.974121,4356.922852,4403.077148,4413.077148,4428.846191,4482.05127,4451.282227,4397.05127,4417.307617,4239.358887,4418.717773
1698668548.135816,0.0,4337.436035,4390.512695,4298.589844,4358.333496,4404.615234,4412.436035,4430.641113,4482.94873,4449.871582,4396.538574,4415.384766,4201.153809,4415.384766
1698668548.143625,0.0,4336.794922,4393.589844,4292.05127,4358.461426,4406.794922,4411.282227,4429.487305,4487.692383,4451.794922,4399.615234,4415.641113,4217.820313,4418.846191
1698668548.151433,0.0,4331.922852,4392.179688,4291.410156,4357.436035,4407.436035,4414.615234,4430.512695,4484.615234,4445.769043,4394.230957,4415.256348,4235.769043,4420.256348
1698668548.159241,0.0,4332.820313,4390.128418,4302.94873,4358.461426,4404.615234,4414.358887,4427.307617,4483.974121,4448.077148,4396.794922,4418.846191,4248.205078,4417.563965
1698668548.167049,0.0,4330.256348,4395.512695,4294.871582,4357.94873,4404.487305,4415.897461,4426.538574,4484.615234,4449.743652,4398.077148,4413.333496,4230.0,4422.05127
1698668548.174858,0.0,4337.94873,4385.897461,4297.179688,4359.615234,4405.0,4414.230957,4426.794922,4486.922852,4444.743652,4391.410156,4412.307617,4235.0,4421.794922
1698668548.182666,0.0,4335.384766,4389.487305,4300.769043,4358.077148,4405.897461,4413.974121,4427.307617,4487.436035,4449.358887,4392.563965,4412.692383,4246.282227,4421.282227
1698668548.190474,0.0,4327.05127,4396.922852,4297.307617,4354.615234,4405.897461,4415.384766,4432.563965,4486.282227,4450.0,4396.666504,4413.717773,4230.641113,4418.846191
1698668548.198282,0.0,4334.615234,4387.307617,4295.0,4358.974121,4405.769043,4412.692383,4432.94873,4487.436035,4448.589844,4399.871582,4419.615234,4217.436035,4416.666504
1698668548.206091,0.0,4334.743652,4390.641113,4285.897461,4359.871582,4408.333496,4414.871582,4430.128418,4484.358887,4448.333496,4395.512695,4415.0,4210.256348,4421.666504
1698668548.213899,0.0,4332.820313,4391.794922,4295.384766,4358.333496,4407.692383,4415.128418,4431.153809,4486.410156,4448.846191,4390.641113,4414.743652,4254.230957,4419.102539
1698668548.221707,0.0,4333.205078,4392.307617,4299.230957,4359.358887,4405.256348,4414.230957,4431.538574,4487.05127,4453.717773,4396.538574,4419.102539,4282.179688,4416.025879
1698668548.229515,0.0,4336.794922,4391.794922,4292.563965,4356.922852,4407.179688,4415.897461,4426.922852,4483.974121,4448.077148,4396.666504,4414.615234,4230.769043,4419.230957
1698668548.237323,0.0,4340.384766,4381.538574,4301.282227,4355.128418,4408.205078,4412.94873,4425.0,4489.743652,4446.025879,4398.205078,4415.128418,4197.05127,4421.025879
1698668548.245132,0.0,4327.692383,4392.692383,4295.897461,4356.282227,4406.666504,4414.102539,4432.179688,4490.256348,4450.0,4398.461426,4414.871582,4202.307617,4419.230957
1698668548.25294,0.0,4327.820313,4398.333496,4297.94873,4358.461426,4407.05127,4414.358887,4433.205078,4485.512695,4446.794922,4392.563965,4416.153809,4241.922852,4412.436035
1698668548.260748,0.0,4336.666504,4391.410156,4306.666504,4358.077148,4408.461426,4413.717773,4425.897461,4482.05127,4447.820313,4396.922852,4418.974121,4277.820313,4416.794922
1698668548.268556,0.0,4331.153809,4397.05127,4297.692383,4353.974121,4406.794922,4414.743652,4424.230957,4479.743652,4446.922852,4396.282227,4418.846191,4236.666504,4423.717773
1698668548.276364,0.0,4328.077148,4392.820313,4298.077148,4354.358887,4406.922852,4411.153809,4428.974121,4483.205078,4446.666504,4392.563965,4423.333496,4192.692383,4418.974121
1698668548.284173,0.0,4332.05127,4389.743652,4292.820313,4355.512695,4407.05127,4413.974121,4430.256348,4484.487305,4450.384766,4393.461426,4418.974121,4195.128418,4418.717773
1698668548.291981,0.0,4336.282227,4387.179688,4288.333496,4356.538574,4403.974121,4413.205078,4426.282227,4483.974121,4444.871582,4393.717773,4418.974121,4238.589844,4420.0
1698668548.299789,0.0,4331.922852,4386.410156,4292.94873,4358.589844,4404.615234,4407.94873,4426.410156,4487.692383,4446.153809,4397.94873,4424.102539,4278.589844,4419.230957
1698668548.307597,0.0,4330.128418,4395.0,4288.077148,4357.05127,4405.897461,4413.974121,4431.153809,4489.743652,4449.230957,4394.743652,4417.820313,4243.333496,4421.282227
1698668548.315405,0.0,4335.128418,4392.307617,4294.871582,4357.563965,4401.922852,4415.384766,4427.94873,4487.05127,4446.153809,4392.94873,4418.205078,4212.692383,4417.179688
1698668548.323214,0.0,4326.538574,4403.461426,4300.128418,4359.743652,4403.205078,4413.717773,4427.563965,4482.05127,4446.922852,4397.94873,4418.461426,4205.384766,4414.743652
1698668548.331022,0.0,4323.974121,4406.922852,4302.307617,4359.615234,4408.077148,4415.128418,4432.307617,4481.922852,4446.410156,4395.641113,4419.102539,4221.410156,4415.769043
1698668548.33883,0.0,4328.717773,4390.897461,4307.820313,4359.743652,4404.487305,4414.615234,4427.94873,4485.0,4450.0,4396.794922,4425.0,4286.666504,4417.05127
1698668548.346638,0.0,4323.205078,4395.384766,4297.436035,4357.436035,4400.769043,4415.512695,4428.077148,4483.333496,4450.128418,4397.692383,4422.692383,4275.384766,4421.410156
1698668548.354447,0.0,4331.794922,4392.94873,4293.717773,4358.205078,4403.333496,4412.692383,4430.897461,4482.820313,4445.128418,4393.333496,4423.077148,4202.179688,4421.410156
1698668548.362255,0.0,4335.641113,4389.102539,4288.333496,4359.358887,4404.871582,4413.077148,4428.717773,4483.461426,4448.589844,4394.487305,4422.307617,4167.94873,4422.436035
1698668548.370063,0.0,4329.615234,4392.436035,4282.820313,4357.179688,4405.128418,4415.128418,4431.794922,4485.897461,4448.717773,4391.794922,4421.410156,4222.563965,4423.717773
1698668548.377871,0.0,4335.384766,4387.94873,4290.641113,4358.717773,4405.769043,4411.794922,4433.205078,4489.871582,4447.563965,4391.282227,4426.025879,4306.153809,4420.641113
1698668548.38568,0.0,4331.153809,4395.897461,4292.05127,4358.205078,4408.717773,4416.282227,4434.358887,4480.512695,4446.410156,4392.436035,4419.487305,4271.282227,4418.846191
1698668548.393488,0.0,4330.128418,4396.282227,4300.512695,4356.025879,4409.615234,4417.179688,4434.743652,4477.05127,4443.333496,4392.436035,4416.922852,4202.436035,4417.436035
1698668548.401296,0.0,4336.153809,4391.794922,4299.615234,4356.538574,4407.05127,4413.974121,4430.128418,4486.794922,4448.589844,4396.282227,4421.410156,4193.974121,4425.128418
1698668548.409104,0.0,4335.128418,4394.230957,4290.641113,4356.153809,4405.897461,4414.871582,4426.153809,4484.743652,4447.820313,4391.666504,4420.769043,4224.871582,4428.077148
1698668548.416912,0.0,4336.025879,4387.692383,4296.025879,4358.717773,4405.256348,4412.820313,4427.179688,4480.512695,4445.641113,4391.410156,4422.820313,4286.666504,4418.717773
1698668548.424721,0.0,4336.153809,4388.333496,4285.769043,4357.179688,4404.615234,4416.153809,4429.615234,4482.820313,4446.410156,4393.461426,4419.230957,4279.871582,4422.307617
1698668548.432529,0.0,4338.205078,4391.538574,4292.05127,4355.512695,4404.615234,4416.538574,4429.871582,4482.307617,4442.436035,4391.282227,4418.333496,4222.563965,4427.820313
1698668548.440337,0.0,4334.487305,4396.153809,4309.230957,4359.615234,4406.025879,4413.846191,4431.282227,4482.563965,4447.692383,4397.436035,4422.820313,4194.487305,4423.717773
1698668548.448145,0.0,4332.94873,4398.717773,4296.025879,4358.717773,4407.692383,4418.077148,4431.410156,4487.436035,4447.692383,4396.025879,4417.05127,4212.94873,4421.025879
1698668548.455953,0.0,4339.358887,4386.153809,4292.563965,4358.717773,4406.153809,4416.410156,4427.307617,4488.846191,4444.230957,4394.230957,4417.692383,4269.487305,4421.282227
1698668548.463762,0.0,4330.897461,4389.871582,4290.128418,4359.358887,4405.384766,4414.230957,4428.589844,4481.794922,4446.794922,4398.333496,4419.358887,4264.615234,4423.974121
1698668548.47157,0.0,4327.307617,4392.94873,4285.641113,4358.717773,4405.897461,4414.871582,4430.512695,4477.692383,4442.94873,4391.922852,4421.922852,4225.769043,4421.794922
1698668548.479378,0.0,4333.846191,4386.282227,4287.307617,4357.94873,4406.282227,4414.358887,4427.05127,4479.487305,4444.487305,4389.743652,4427.436035,4215.128418,4423.461426
1698668548.487186,0.0,4333.974121,4391.282227,4284.102539,4356.153809,4405.384766,4415.0,4428.717773,4482.563965,4447.307617,4392.563965,4421.410156,4214.102539,4428.974121
1698668548.494995,0.0,4335.641113,4385.128418,4297.94873,4360.0,4403.589844,4412.436035,4431.922852,4487.692383,4444.871582,4394.615234,4420.0,4262.563965,4422.563965
1698668548.502803,0.0,4328.589844,4387.307617,4298.077148,4360.0,4405.256348,4412.820313,4431.538574,4483.846191,4443.589844,4394.358887,4421.410156,4298.077148,4420.256348
1698668548.510611,0.0,4325.512695,4393.717773,4286.922852,4356.025879,4404.358887,4413.589844,4432.179688,4476.666504,4439.487305,4388.461426,4423.589844,4235.769043,4421.922852
1698668548.518419,0.0,4335.769043,4385.0,4294.871582,4358.333496,4402.436035,4412.436035,4430.384766,4482.307617,4444.743652,4391.922852,4426.666504,4173.205078,4421.666504
1698668548.526227,0.0,4336.666504,4393.333496,4295.128418,4359.615234,4406.153809,4416.410156,4430.769043,4487.436035,4447.94873,4393.461426,4415.769043,4188.461426,4425.128418
1698668548.534036,0.0,4335.256348,4392.307617,4288.333496,4358.333496,4404.487305,4411.666504,4431.922852,4486.153809,4442.94873,4390.384766,4416.666504,4275.128418,4422.94873
1698668548.541844,0.0,4331.025879,4388.717773,4284.487305,4357.307617,4401.922852,4408.974121,4431.282227,4482.563965,4448.333496,4395.641113,4424.487305,4298.205078,4422.94873
1698668548.549652,0.0,4332.179688,4398.974121,4294.743652,4357.436035,4405.641113,4417.307617,4433.589844,4480.384766,4446.538574,4395.128418,4418.461426,4226.410156,4424.358887
1698668548.55746,0.0,4337.94873,4396.282227,4306.538574,4359.615234,4406.153809,4416.538574,4432.692383,4481.666504,4441.538574,4394.871582,4420.641113,4193.461426,4420.641113
1698668548.565269,0.0,4329.230957,4394.487305,4290.128418,4358.846191,4405.769043,4414.487305,4431.025879,4476.666504,4444.743652,4395.0,4423.974121,4209.102539,4422.692383
1698668548.573077,0.0,4330.512695,4389.487305,4283.461426,4354.615234,4409.102539,4414.102539,4430.512695,4475.897461,4444.102539,4389.230957,4422.179688,4242.820313,4422.692383
1698668548.580885,0.0,4336.153809,4390.0,4290.512695,4354.743652,4410.641113,4413.205078,4430.0,4483.717773,4445.769043,4390.512695,4422.179688,4274.230957,4423.333496
1698668548.588693,0.0,4330.256348,4397.307617,4292.307617,4358.333496,4410.641113,4416.666504,4432.820313,4485.769043,4445.641113,4391.666504,4420.384766,4237.692383,4425.512695
1698668548.596501,0.0,4330.897461,4388.333496,4301.794922,4360.897461,4410.128418,4416.153809,4431.153809,4484.487305,4446.025879,4393.077148,4420.769043,4200.0,4421.282227
1698668548.60431,0.0,4332.436035,4388.717773,4294.871582,4358.077148,4408.205078,4415.128418,4428.461426,4481.153809,4445.0,4394.230957,4417.179688,4198.333496,4423.461426
1698668548.612118,0.0,4334.230957,4390.769043,4289.358887,4356.153809,4405.769043,4412.820313,4431.538574,4480.0,4440.512695,4390.256348,4422.692383,4244.487305,4428.461426
1698668548.619926,0.0,4333.077148,4387.94873,4294.102539,4359.358887,4405.384766,4410.769043,4432.436035,4485.256348,4446.794922,4393.974121,4428.974121,4295.256348,4429.102539
1698668548.627734,0.0,4326.922852,4393.333496,4290.128418,4357.692383,4405.0,4413.717773,4431.538574,4487.05127,4447.179688,4393.846191,4419.358887,4249.743652,4427.179688
1698668548.635543,0.0,4333.974121,4390.384766,4299.230957,4357.692383,4403.461426,4411.025879,4431.922852,4484.871582,4441.794922,4389.230957,4419.358887,4193.846191,4422.94873
1698668548.643351,0.0,4333.717773,4391.538574,4299.230957,4358.974121,4404.871582,4412.820313,4433.846191,4482.307617,4444.743652,4390.128418,4421.153809,4192.436035,4425.0
1698668548.651159,0.0,4326.025879,4395.256348,4292.692383,4358.974121,4406.538574,4417.05127,4432.05127,4482.05127,4444.358887,4390.256348,4418.333496,4237.820313,4423.846191
1698668548.658967,0.0,4329.230957,4391.794922,4296.794922,4359.871582,4405.769043,4415.384766,4428.205078,4484.487305,4445.769043,4396.538574,4423.461426,4294.615234,4423.205078
1698668548.666775,0.0,4329.230957,4395.897461,4292.563965,4357.692383,4405.256348,4417.436035,4429.871582,4485.769043,4444.230957,4394.358887,4423.589844,4256.666504,4426.666504
1698668548.674584,0.0,4330.0,4392.820313,4298.461426,4359.102539,4403.974121,4416.410156,4430.769043,4488.077148,4441.153809,4387.179688,4422.820313,4199.230957,4420.512695
1698668548.682392,0.0,4328.077148,4391.794922,4297.179688,4360.512695,4403.461426,4414.615234,4429.487305,4484.743652,4447.692383,4391.282227,4421.410156,4191.794922,4420.384766
1698668548.6902,0.0,4331.410156,4394.358887,4289.487305,4358.333496,4405.769043,4414.487305,4427.820313,4482.436035,4447.563965,4391.666504,4418.717773,4225.897461,4428.846191
1698668548.698008,0.0,4336.922852,4388.717773,4300.0,4358.846191,4405.512695,4412.307617,4428.205078,4488.717773,4443.333496,4391.410156,4421.153809,4286.794922,4429.102539
1698668548.705816,0.0,4328.205078,4397.307617,4301.922852,4358.333496,4405.641113,4415.897461,4430.641113,4481.666504,4442.307617,4390.897461,4420.769043,4272.179688,4424.871582
1698668548.713625,0.0,4329.871582,4394.615234,4301.666504,4357.820313,4407.94873,4415.769043,4428.717773,4475.384766,4441.282227,4390.769043,4425.641113,4209.102539,4423.461426
1698668548.721433,0.0,4333.974121,4391.538574,4298.205078,4357.692383,4406.666504,4413.974121,4428.461426,4482.563965,4445.769043,4396.282227,4424.358887,4177.307617,4429.487305
1698668548.729241,0.0,4333.333496,4398.077148,4291.922852,4357.179688,4402.307617,4415.512695,4430.128418,4485.897461,4443.846191,4392.563965,4418.205078,4216.794922,4432.563965
1698668548.737049,0.0,4334.487305,4386.666504,4297.563965,4359.615234,4401.282227,4412.563965,4427.307617,4483.077148,4443.461426,4391.025879,4426.025879,4297.820313,4425.641113
1698668548.744858,0.0,4327.94873,4394.871582,4295.641113,4356.410156,4406.922852,4413.846191,4429.615234,4479.743652,4447.179688,4392.436035,4422.820313,4278.717773,4423.333496
1698668548.752666,0.0,4331.025879,4401.538574,4304.871582,4353.846191,4411.410156,4416.153809,4432.05127,4482.563965,4441.410156,4387.307617,4416.410156,4210.512695,4423.717773
1698668548.760474,0.0,4334.487305,4391.410156,4305.512695,4359.102539,4409.615234,4415.641113,4428.717773,4485.0,4443.205078,4389.230957,4422.436035,4194.871582,4426.282227
1698668548.768282,0.0,4327.436035,4394.487305,4285.897461,4357.820313,4407.307617,4415.641113,4430.0,4481.282227,4445.0,4391.794922,4423.589844,4214.615234,4428.077148
1698668548.776091,0.0,4327.179688,4396.153809,4296.922852,4356.282227,4404.615234,4410.128418,4429.487305,4479.230957,4440.512695,4394.743652,4423.717773,4261.794922,4422.179688
1698668548.783899,0.0,4325.769043,4398.974121,4304.871582,4357.05127,4405.256348,4411.282227,4428.974121,4476.410156,4442.692383,4394.871582,4422.436035,4260.128418,4423.461426
1698668548.791707,0.0,4330.0,4395.0,4295.128418,4356.153809,4408.974121,4415.897461,4432.179688,4477.179688,4443.077148,4388.846191,4423.077148,4221.410156,4425.0
1698668548.799515,0.0,4336.794922,4392.307617,4299.102539,4359.743652,4408.077148,4417.436035,4429.743652,4484.615234,4446.025879,4391.153809,4424.487305,4212.94873,4425.384766
1698668548.807323,0.0,4331.153809,4399.487305,4302.94873,4360.384766,4404.743652,4420.0,4429.615234,4484.102539,4444.871582,4390.0,4417.94873,4217.692383,4426.282227
1698668548.815132,0.0,4331.666504,4393.333496,4301.410156,4357.820313,4404.615234,4413.333496,4432.820313,4480.0,4442.307617,4389.102539,4423.077148,4246.922852,4419.743652
1698668548.82294,0.0,4331.410156,4394.230957,4290.769043,4355.897461,4406.922852,4412.179688,4433.333496,4477.820313,4446.794922,4393.333496,4428.589844,4255.897461,4423.077148
1698668548.830748,0.0,4328.077148,4396.922852,4295.0,4358.461426,4405.897461,4421.153809,4431.538574,4474.615234,4444.487305,4389.102539,4423.846191,4227.563965,4428.974121
1698668548.838556,0.0,4332.94873,4390.0,4307.692383,4364.102539,4403.461426,4421.153809,4429.743652,4482.05127,4445.128418,4389.358887,4423.974121,4234.358887,4428.717773
1698668548.846364,0.0,4336.282227,4391.025879,4292.563965,4360.641113,4405.128418,4417.692383,4429.487305,4488.205078,4445.128418,4392.563965,4420.384766,4243.974121,4431.410156
1698668548.854173,0.0,4341.025879,4385.897461,4288.974121,4359.487305,4405.769043,4413.717773,4423.461426,4483.461426,4440.256348,4391.410156,4420.769043,4243.589844,4432.94873
1698668548.861981,0.0,4335.769043,4389.230957,4298.717773,4361.538574,4404.487305,4416.153809,4420.128418,4479.743652,4444.358887,4391.666504,4421.922852,4223.974121,4432.179688
1698668548.869789,0.0,4329.871582,4395.769043,4298.846191,4356.922852,4404.743652,4418.717773,4430.384766,4483.205078,4443.846191,4388.974121,4418.461426,4216.410156,4428.333496
1698668548.877597,0.0,4338.205078,4382.179688,4297.307617,4358.077148,4405.256348,4414.230957,4430.897461,4488.077148,4442.692383,4391.410156,4421.922852,4264.615234,4427.563965
1698668548.885405,0.0,4335.256348,4385.641113,4290.128418,4361.922852,4405.256348,4417.692383,4424.358887,4481.666504,4445.641113,4391.922852,4421.153809,4264.102539,4430.641113
1698668548.893214,0.0,4328.333496,4395.897461,4302.307617,4359.615234,4403.333496,4418.461426,4429.230957,4476.410156,4443.974121,4387.94873,4420.769043,4221.922852,4424.230957
1698668548.901022,0.0,4330.897461,4394.615234,4308.205078,4356.538574,4404.871582,4415.384766,4432.307617,4480.384766,4446.410156,4391.410156,4422.179688,4218.974121,4422.179688
1698668548.90883,0.0,4340.256348,4392.05127,4293.589844,4357.307617,4407.692383,4417.820313,4425.897461,4485.256348,4445.384766,4389.487305,4422.05127,4231.153809,4432.179688
1698668548.916638,0.0,4341.922852,4385.512695,4300.769043,4359.230957,4404.487305,4416.025879,4425.384766,4483.717773,4442.436035,4387.94873,4429.871582,4245.128418,4430.512695
1698668548.924447,0.0,4325.769043,4397.436035,4303.461426,4359.102539,4404.615234,4415.256348,4432.94873,4474.102539,4442.05127,4392.307617,4427.179688,4228.974121,4422.179688
1698668548.932255,0.0,4326.794922,4400.641113,4300.897461,4358.717773,4408.333496,4415.512695,4432.05127,4479.358887,4439.358887,4390.769043,4419.743652,4222.692383,4421.794922
1698668548.940063,0.0,4337.94873,4389.102539,4300.384766,4357.05127,4405.641113,4415.128418,4426.153809,4492.307617,4444.871582,4391.282227,4422.179688,4245.256348,4428.205078
1698668548.947871,0.0,4332.563965,4393.077148,4294.358887,4356.666504,4402.820313,4417.820313,4428.846191,4487.307617,4446.410156,4390.897461,4421.538574,4235.0,4429.487305
1698668548.95568,0.0,4328.205078,4391.025879,4305.0,4361.666504,4406.025879,4415.512695,4432.307617,4480.0,4441.666504,4388.846191,4422.307617,4224.615234,4422.05127
1698668548.963488,0.0,4328.717773,4392.179688,4302.05127,4362.692383,4408.077148,4415.256348,4432.692383,4483.589844,4444.871582,4390.512695,4420.897461,4224.102539,4425.641113
1698668548.971296,0.0,4333.461426,4391.282227,4288.846191,4360.512695,4403.974121,4415.769043,4432.692383,4487.05127,4446.922852,4391.153809,4422.307617,4234.358887,4428.333496
1698668548.979104,0.0,4337.307617,4385.256348,4292.563965,4362.05127,4401.922852,4410.769043,4429.358887,4483.974121,4447.436035,4394.743652,4428.717773,4265.641113,4426.153809
1698668548.986912,0.0,4328.846191,4396.025879,4292.179688,4359.871582,4404.871582,4413.077148,4429.230957,4481.410156,4443.461426,4390.384766,4424.230957,4247.05127,4429.743652
1698668548.994721,0.0,4327.179688,4393.589844,4293.717773,4359.615234,4406.922852,4415.384766,4431.666504,4485.641113,4442.563965,4386.410156,4422.692383,4218.333496,4426.538574
1698668549.002529,0.0,4332.05127,4388.589844,4289.615234,4361.153809,4405.641113,4416.282227,4430.769043,4485.641113,4448.077148,4393.589844,4423.717773,4212.563965,4426.282227
1698668549.010337,0.0,4335.0,4391.922852,4285.769043,4358.077148,4402.179688,4416.538574,4429.358887,4482.436035,4442.05127,4391.282227,4425.384766,4232.692383,4430.128418
1698668549.018145,0.0,4335.641113,4388.589844,4292.94873,4361.282227,4404.358887,4413.205078,4429.743652,4486.153809,4442.179688,4390.769043,4430.641113,4274.615234,4430.512695
1698668549.025953,0.0,4330.128418,4391.282227,4288.461426,4361.666504,4407.179688,4414.871582,4432.05127,4487.307617,4446.538574,4392.179688,4421.794922,4250.256348,4429.487305
1698668549.033762,0.0,4336.666504,4385.384766,4292.307617,4358.205078,4402.692383,4413.205078,4428.205078,4488.717773,4439.102539,4387.179688,4416.410156,4218.974121,4424.871582
1698668549.04157,0.0,4337.563965,4386.538574,4299.871582,4360.512695,4402.436035,4411.922852,4425.128418,4487.307617,4441.794922,4390.0,4421.922852,4234.871582,4427.436035
1698668549.049378,0.0,4327.820313,4398.077148,4298.589844,4362.436035,4408.974121,4413.205078,4430.384766,4479.871582,4443.974121,4392.05127,4424.871582,4232.307617,4429.487305
1698668549.057186,0.0,4331.025879,4392.563965,4306.025879,4360.256348,4407.179688,4411.410156,4433.461426,4482.563965,4440.128418,4391.282227,4425.897461,4228.205078,4425.897461
1698668549.064994,0.0,4332.05127,4391.666504,4299.102539,4358.333496,4401.666504,4416.538574,4431.025879,4484.615234,4442.307617,4388.077148,4419.615234,4227.436035,4429.230957
1698668549.072803,0.0,4334.102539,4389.487305,4289.615234,4360.256348,4402.692383,4415.897461,4428.205078,4481.666504,4441.410156,4387.94873,4426.538574,4240.256348,4431.666504
1698668549.080611,0.0,4330.384766,4388.717773,4291.282227,4358.846191,4404.358887,4409.487305,4429.743652,4480.641113,4443.589844,4393.333496,4436.666504,4239.230957,4429.102539
1698668549.088419,0.0,4324.871582,4396.794922,4293.077148,4355.512695,4403.846191,4412.820313,4433.333496,4477.436035,4443.589844,4387.94873,4424.487305,4224.230957,4428.589844
1698668549.096228,0.0,4335.0,4389.358887,4298.461426,4360.641113,4402.692383,4412.05127,4431.153809,4481.025879,4443.077148,4388.205078,4422.436035,4255.769043,4429.102539
1698668549.104036,0.0,4336.922852,4388.461426,4288.846191,4361.538574,4404.487305,4412.563965,4428.974121,4488.077148,4443.205078,4393.974121,4426.922852,4263.974121,4430.641113
1698668549.111844,0.0,4333.333496,4391.410156,4288.461426,4357.179688,4404.871582,4417.436035,4429.871582,4484.871582,4437.436035,4387.94873,4425.128418,4224.358887,4426.922852
1698668549.119652,0.0,4330.256348,4393.205078,4301.025879,4358.461426,4403.589844,4415.641113,4430.384766,4479.230957,4442.94873,4387.94873,4427.820313,4217.05127,4425.641113
1698668549.12746,0.0,4326.922852,4405.384766,4297.94873,4360.128418,4406.538574,4414.871582,4432.436035,4478.974121,4444.743652,4390.641113,4424.102539,4222.05127,4428.589844
1698668549.135269,0.0,4332.307617,4397.179688,4303.589844,4359.102539,4406.538574,4416.025879,4428.974121,4482.05127,4438.974121,4390.512695,4421.666504,4246.666504,4424.871582
1698668549.143077,0.0,4331.538574,4391.025879,4297.94873,4356.666504,4402.179688,4416.282227,4424.871582,4482.436035,4442.179688,4391.025879,4422.563965,4248.205078,4426.922852
1698668549.150885,0.0,4330.0,4394.487305,4288.974121,4359.102539,4401.025879,4412.820313,4429.871582,4481.794922,4440.897461,4387.94873,4425.0,4228.333496,4430.641113
1698668549.158693,0.0,4335.0,4391.153809,4301.922852,4365.128418,4403.461426,4412.179688,4432.436035,4481.538574,4443.589844,4391.538574,4428.717773,4243.589844,4428.846191
1698668549.166501,0.0,4328.974121,4400.128418,4304.102539,4361.025879,4405.0,4417.179688,4432.692383,4476.666504,4445.128418,4392.563965,4422.563965,4240.769043,4427.820313
1698668549.17431,0.0,4323.589844,4395.641113,4303.589844,4357.307617,4404.487305,4412.436035,4429.871582,4477.820313,4438.333496,4388.333496,4422.820313,4225.0,4423.205078
1698668549.182118,0.0,4327.05127,4389.487305,4299.743652,4359.615234,4406.025879,4410.128418,4424.102539,4483.333496,4440.256348,4391.410156,4425.769043,4214.102539,4426.922852
1698668549.189926,0.0,4333.717773,4395.0,4296.666504,4358.846191,4408.205078,4416.282227,4426.282227,4482.692383,4441.025879,4389.871582,4422.94873,4223.205078,4431.282227
1698668549.197734,0.0,4337.563965,4389.358887,4306.410156,4360.512695,4407.05127,4415.769043,4431.153809,4483.846191,4440.256348,4391.153809,4425.0,4270.128418,4426.282227
1698668549.205542,0.0,4332.563965,4391.410156,4297.94873,4360.128418,4405.769043,4416.666504,4432.05127,4484.102539,4442.05127,4392.307617,4423.077148,4262.94873,4428.461426
1698668549.213351,0.0,4335.897461,4392.94873,4294.615234,4357.820313,4406.153809,4417.05127,4429.615234,4483.077148,4439.102539,4387.436035,4423.333496,4216.666504,4427.436035
1698668549.221159,0.0,4335.769043,4395.128418,4302.94873,4360.641113,4407.179688,4415.641113,4430.128418,4483.077148,4443.077148,4389.871582,4425.256348,4211.538574,4426.410156
1698668549.228967,0.0,4327.563965,4403.205078,4304.230957,4361.538574,4407.94873,4417.307617,4434.615234,4478.333496,4442.563965,4389.743652,4422.436035,4224.743652,4428.846191
1698668549.236775,0.0,4331.025879,4394.230957,4303.589844,4361.282227,4405.128418,4413.974121,4430.512695,4480.0,4439.487305,4388.974121,4425.384766,4246.410156,4425.128418
1698668549.244583,0.0,4330.0,4386.153809,4287.692383,4360.256348,4403.717773,4414.743652,4425.128418,4485.128418,4442.820313,4389.871582,4421.025879,4237.563965,4429.358887
1698668549.252392,0.0,4332.307617,4381.410156,4284.230957,4360.0,4405.256348,4415.641113,4428.077148,4484.487305,4440.384766,4388.333496,4421.025879,4238.717773,4433.846191
1698668549.2602,0.0,4335.769043,4383.846191,4299.615234,4360.384766,4405.641113,4411.282227,4432.179688,4481.025879,4441.282227,4394.871582,4429.230957,4249.358887,4430.512695
1698668549.268008,0.0,4331.410156,4395.769043,4301.794922,4357.179688,4407.05127,4412.436035,4432.307617,4477.563965,4443.205078,4393.205078,4423.589844,4224.102539,4429.743652
1698668549.275817,0.0,4338.846191,4387.436035,4305.512695,4358.717773,4406.410156,4412.563965,4426.922852,4479.230957,4443.461426,4386.282227,4423.461426,4241.282227,4430.128418
1698668549.283625,0.0,4338.589844,4387.179688,4299.230957,4360.256348,4404.615234,4415.128418,4425.0,4480.256348,4443.846191,4388.974121,4425.769043,4261.025879,4432.179688
1698668549.291433,0.0,4330.0,4397.692383,4296.025879,4359.230957,4405.256348,4418.974121,4430.384766,4481.922852,4442.05127,4390.256348,4422.05127,4234.615234,4428.846191
1698668549.299241,0.0,4330.512695,4394.230957,4306.153809,4358.846191,4407.307617,4417.179688,4433.461426,4486.538574,4445.384766,4392.179688,4422.05127,4232.179688,4425.641113
1698668549.307049,0.0,4333.461426,4395.0,4301.153809,4356.538574,4408.077148,4415.0,4428.717773,4485.0,4444.230957,4389.102539,4419.743652,4230.641113,4429.102539
1698668549.314858,0.0,4335.128418,4391.410156,4300.897461,4360.512695,4405.897461,4412.179688,4423.846191,4483.717773,4441.666504,4389.487305,4423.717773,4236.666504,4429.487305
1698668549.322666,0.0,4328.717773,4391.922852,4296.794922,4363.077148,4405.128418,4414.358887,4429.358887,4481.794922,4447.307617,4395.256348,4427.05127,4231.666504,4430.128418
1698668549.330474,0.0,4330.641113,4393.846191,4292.307617,4358.333496,4406.922852,4415.641113,4434.358887,4480.641113,4445.512695,4388.589844,4424.230957,4224.871582,4427.307617
1698668549.338282,0.0,4337.563965,4386.922852,4299.358887,4358.077148,4404.743652,4410.897461,4427.05127,4486.282227,4443.333496,4386.794922,4425.0,4252.436035,4425.512695
1698668549.34609,0.0,4333.077148,4392.436035,4292.563965,4360.641113,4401.025879,4415.0,4424.230957,4485.384766,4442.436035,4390.641113,4420.769043,4248.717773,4433.333496
1698668549.353899,0.0,4337.820313,4385.384766,4292.94873,4361.025879,4404.871582,4416.666504,4430.897461,4483.717773,4436.410156,4388.846191,4421.794922,4230.512695,4433.846191
1698668549.361707,0.0,4338.333496,4382.94873,4290.384766,4360.384766,4411.025879,4414.230957,4431.922852,4486.153809,4441.538574,4391.794922,4427.179688,4242.820313,4433.333496
1698668549.369515,0.0,4330.256348,4394.102539,4284.230957,4359.487305,4409.102539,4415.641113,4429.358887,4486.153809,4446.025879,4392.563965,4426.410156,4244.358887,4435.256348
1698668549.377323,0.0,4333.589844,4386.025879,4301.025879,4361.025879,4404.743652,4414.358887,4429.743652,4489.871582,4444.871582,4392.179688,4425.769043,4241.153809,4429.487305
1698668549.385131,0.0,4332.436035,4392.436035,4303.077148,4360.641113,4406.794922,4417.820313,4431.794922,4488.974121,4444.102539,4391.410156,4421.410156,4225.641113,4429.358887
1698668549.39294,0.0,4330.769043,4397.307617,4295.256348,4358.461426,4406.538574,4418.589844,4432.05127,4484.102539,4437.563965,4389.487305,4423.974121,4234.487305,4430.128418
1698668549.400748,0.0,4334.230957,4388.846191,4296.538574,4359.615234,4405.128418,4413.974121,4430.0,4484.743652,4441.282227,4392.820313,4428.461426,4251.538574,4429.230957
1698668549.408556,0.0,4332.820313,4391.794922,4295.256348,4359.743652,4407.307617,4414.743652,4430.641113,4483.461426,4443.333496,4391.153809,4424.871582,4231.025879,4431.666504
1698668549.416364,0.0,4335.0,4386.794922,4294.871582,4359.487305,4406.794922,4415.512695,4431.538574,4481.153809,4440.384766,4388.589844,4428.717773,4238.846191,4429.615234
1698668549.424173,0.0,4334.230957,4386.025879,4284.615234,4359.102539,4408.974121,4418.717773,4432.05127,4486.025879,4440.256348,4389.358887,4425.384766,4246.153809,4430.512695
1698668549.431981,0.0,4332.692383,4390.897461,4289.871582,4359.358887,4409.871582,4419.615234,4432.307617,4490.128418,4436.922852,4387.307617,4419.871582,4236.153809,4429.230957
1698668549.439789,0.0,4332.179688,4391.666504,4303.333496,4359.871582,4405.256348,4416.153809,4430.897461,4482.820313,4443.077148,4390.897461,4426.282227,4251.282227,4427.307617
1698668549.447597,0.0,4332.94873,4392.94873,4293.461426,4356.922852,4403.461426,4417.307617,4430.769043,4478.461426,4445.384766,4389.230957,4426.153809,4244.358887,4431.922852
1698668549.455406,0.0,4338.333496,4387.692383,4294.358887,4357.94873,4404.615234,4414.230957,4430.384766,4485.641113,4438.589844,4387.820313,4426.538574,4234.615234,4431.922852
1698668549.463214,0.0,4329.487305,4390.384766,4294.871582,4359.358887,4407.307617,4412.05127,4430.897461,4484.743652,4440.384766,4391.794922,4427.692383,4223.205078,4430.384766
1698668549.471022,0.0,4327.307617,4392.05127,4292.05127,4358.205078,4410.0,4414.230957,4431.922852,4481.666504,4443.717773,4389.102539,4425.897461,4224.358887,4427.820313
1698668549.47883,0.0,4337.563965,4390.512695,4306.538574,4359.102539,4408.077148,4414.487305,4431.666504,4485.897461,4446.153809,4390.769043,4425.128418,4258.846191,4423.717773
1698668549.486638,0.0,4330.256348,4401.538574,4307.05127,4357.436035,4407.179688,4417.307617,4434.230957,4482.307617,4443.717773,4389.743652,4420.512695,4248.974121,4423.717773
1698668549.494447,0.0,4327.94873,4396.153809,4295.641113,4358.205078,4406.794922,4412.563965,4433.461426,4481.666504,4438.077148,4385.769043,4425.128418,4223.461426,4424.358887
1698668549.502255,0.0,4332.563965,4390.769043,4288.589844,4360.128418,4405.0,4410.256348,4433.461426,4481.666504,4442.179688,4391.282227,4428.077148,4213.974121,4431.153809
1698668549.510063,0.0,4331.666504,4397.94873,4297.94873,4359.102539,4407.820313,4415.384766,4434.358887,4476.922852,4444.358887,4389.743652,4422.563965,4225.512695,4432.820313
1698668549.517871,0.0,4333.589844,4389.871582,4307.94873,4360.256348,4408.205078,4414.615234,4427.563965,4483.205078,4443.974121,4388.077148,4424.487305,4272.94873,4427.436035
1698668549.525679,0.0,4332.436035,4386.666504,4290.256348,4360.641113,4403.717773,4416.666504,4425.769043,4486.025879,4443.717773,4388.589844,4423.589844,4260.512695,4431.282227
1698668549.533488,0.0,4334.743652,4386.282227,4289.102539,4360.897461,4401.666504,4415.256348,4431.666504,4478.846191,4441.025879,4386.153809,4427.692383,4225.384766,4431.282227
1698668549.541296,0.0,4331.666504,4389.230957,4295.384766,4359.743652,4403.461426,4411.410156,4433.461426,4479.615234,4445.897461,4389.487305,4431.922852,4231.025879,4429.358887
1698668549.549104,0.0,4328.846191,4395.384766,4288.461426,4357.563965,4403.589844,4414.487305,4432.05127,4484.743652,4442.94873,4389.615234,4425.897461,4232.05127,4433.333496
1698668549.556912,0.0,4335.512695,4386.538574,4296.666504,4360.384766,4401.410156,4415.128418,4429.743652,4488.846191,4440.256348,4390.256348,4429.487305,4245.128418,4432.94873
1698668549.564721,0.0,4327.94873,4393.717773,4296.282227,4359.743652,4403.717773,4415.384766,4429.871582,4485.0,4446.153809,4392.563965,4431.538574,4250.769043,4430.897461
1698668549.572529,0.0,4325.512695,4396.025879,4292.94873,4355.128418,4406.538574,4413.717773,4433.589844,4477.563965,4441.666504,4388.589844,4430.128418,4235.769043,4427.94873
1698668549.580337,0.0,4335.0,4384.487305,4293.333496,4352.94873,4406.794922,4411.666504,4433.589844,4482.307617,4441.153809,4390.256348,4431.794922,4218.205078,4428.974121
1698668549.588145,0.0,4333.717773,4387.307617,4287.563965,4353.461426,4405.769043,4414.743652,4430.897461,4487.820313,4443.333496,4391.538574,4426.153809,4219.871582,4430.897461
1698668549.595953,0.0,4329.230957,4387.179688,4299.871582,4359.230957,4404.102539,4411.922852,4429.743652,4480.0,4441.025879,4388.974121,4425.512695,4263.717773,4424.743652
1698668549.603762,0.0,4326.922852,4396.025879,4303.333496,4361.794922,4405.897461,4411.538574,4432.692383,4471.666504,4441.538574,4389.230957,4426.282227,4270.897461,4425.256348
1698668549.61157,0.0,4331.538574,4396.153809,4291.538574,4359.487305,4407.05127,4417.179688,4434.615234,4478.974121,4442.307617,4388.077148,4428.333496,4230.0,4429.102539
1698668549.619378,0.0,4333.974121,4387.179688,4291.922852,4360.512695,4404.230957,4418.974121,4431.794922,4485.897461,4445.641113,4390.897461,4432.179688,4218.333496,4429.871582
1698668549.627186,0.0,4324.615234,4398.077148,4300.128418,4358.846191,4404.358887,4418.461426,4432.94873,4476.538574,4443.461426,4389.871582,4424.871582,4221.282227,4429.102539
1698668549.634995,0.0,4325.641113,4394.743652,4309.358887,4356.282227,4406.282227,4412.307617,4430.384766,4475.0,4440.0,4387.820313,4424.871582,4245.0,4423.333496
1698668549.642803,0.0,4333.077148,4387.94873,4294.358887,4358.077148,4405.769043,4413.974121,4425.641113,4482.307617,4443.717773,4390.769043,4430.128418,4263.333496,4429.102539
1698668549.650611,0.0,4336.666504,4389.102539,4283.846191,4360.0,4405.641113,4420.897461,4427.436035,4484.102539,4439.358887,4387.692383,4430.641113,4238.717773,4435.384766
1698668549.658419,0.0,4336.922852,4385.512695,4301.153809,4360.897461,4406.794922,4416.666504,4430.0,4485.769043,4440.897461,4391.794922,4432.563965,4220.641113,4430.384766
1698668549.666227,0.0,4328.077148,4395.0,4299.102539,4358.077148,4407.436035,4415.256348,4432.692383,4485.0,4447.179688,4393.974121,4426.153809,4223.717773,4429.743652
1698668549.674036,0.0,4329.743652,4394.102539,4294.358887,4358.717773,4405.512695,4416.282227,4429.871582,4483.589844,4442.820313,4389.230957,4424.358887,4255.128418,4427.820313
1698668549.681844,0.0,4335.512695,4386.153809,4296.538574,4362.692383,4403.461426,4418.461426,4426.410156,4486.025879,4442.94873,4392.563965,4426.666504,4263.846191,4429.358887
1698668549.689652,0.0,4330.0,4395.0,4296.153809,4360.384766,4404.487305,4420.512695,4429.871582,4485.897461,4442.307617,4390.897461,4423.205078,4227.05127,4430.769043
1698668549.69746,0.0,4327.436035,4394.615234,4302.436035,4359.102539,4404.743652,4413.717773,4429.358887,4486.025879,4440.512695,4389.102539,4427.307617,4228.589844,4425.897461
1698668549.705269,0.0,4328.077148,4388.461426,4293.333496,4358.717773,4402.563965,4412.307617,4427.820313,4484.358887,4443.717773,4390.0,4428.717773,4232.94873,4428.974121
1698668549.713077,0.0,4336.410156,4385.769043,4288.846191,4359.871582,4403.333496,4414.615234,4428.461426,4486.282227,4443.589844,4388.333496,4428.333496,4242.179688,4432.179688
1698668549.720885,0.0,4336.282227,4389.358887,4297.94873,4362.179688,4407.94873,4415.384766,4425.769043,4487.820313,4442.307617,4393.205078,4428.589844,4269.230957,4432.05127
1698668549.728693,0.0,4328.589844,4396.666504,4295.641113,4357.94873,4407.94873,4417.05127,4426.282227,4483.846191,4440.512695,4395.0,4426.410156,4243.205078,4432.436035
1698668549.736501,0.0,4333.846191,4388.077148,4292.307617,4355.769043,4403.205078,4414.743652,4429.102539,4486.282227,4443.205078,4391.025879,4430.0,4215.769043,4429.230957
1698668549.74431,0.0,4332.94873,4388.333496,4287.94873,4359.615234,4406.282227,4415.384766,4428.974121,4486.282227,4446.282227,4389.615234,4428.717773,4215.0,4428.461426
1698668549.752118,0.0,4332.94873,4394.230957,4297.179688,4362.436035,4409.230957,4416.794922,4426.410156,4485.256348,4442.179688,4388.717773,4426.282227,4240.641113,4428.846191
1698668549.759926,0.0,4335.384766,4391.282227,4306.282227,4359.743652,4406.025879,4413.974121,4427.179688,4486.794922,4444.230957,4391.538574,4427.563965,4265.769043,4428.974121
1698668549.767734,0.0,4329.615234,4395.128418,4297.820313,4357.563965,4407.563965,4416.410156,4431.922852,4481.410156,4446.410156,4390.128418,4424.358887,4236.282227,4428.461426
1698668549.775542,0.0,4331.410156,4388.974121,4300.641113,4363.333496,4409.743652,4418.077148,4429.102539,4480.641113,4442.179688,4389.102539,4427.307617,4220.512695,4424.743652
1698668549.783351,0.0,4332.179688,4390.641113,4296.666504,4361.410156,4406.025879,4417.436035,4426.666504,4482.179688,4443.077148,4393.461426,4427.436035,4222.94873,4425.384766
1698668549.791159,0.0,4329.230957,4394.102539,4294.102539,4355.128418,4404.615234,4416.794922,4430.769043,4482.307617,4443.974121,4390.512695,4422.436035,4226.410156,4426.410156
1698668549.798967,0.0,4328.846191,4384.615234,4301.666504,4358.846191,4407.692383,4415.769043,4428.589844,4482.307617,4445.384766,4390.128418,4425.641113,4256.666504,4427.94873
1698668549.806775,0.0,4326.410156,4389.358887,4293.461426,4361.282227,4408.205078,4417.94873,4425.0,4477.05127,4444.102539,4392.563965,4426.666504,4252.179688,4431.666504
1698668549.814584,0.0,4327.820313,4393.077148,4298.077148,4356.666504,4406.025879,4416.153809,4429.230957,4475.641113,4440.256348,4390.128418,4427.307617,4230.769043,4425.256348
1698668549.822392,0.0,4328.461426,4398.846191,4302.563965,4356.794922,4406.922852,4415.512695,4432.820313,4480.0,4444.871582,4388.461426,4428.333496,4223.589844,4424.487305
1698668549.8302,0.0,4326.410156,4401.410156,4295.512695,4360.256348,4406.922852,4416.538574,4431.025879,4481.153809,4445.641113,4387.692383,4427.692383,4226.153809,4430.128418
1698668549.838008,0.0,4329.102539,4389.487305,4299.230957,4358.589844,4405.384766,4413.461426,4429.230957,4480.641113,4445.897461,4392.436035,4429.615234,4246.410156,4426.025879
1698668549.845816,0.0,4332.436035,4390.641113,4292.692383,4356.538574,4408.717773,4416.794922,4430.897461,4481.282227,4445.384766,4392.05127,4425.769043,4236.410156,4426.025879
1698668549.853625,0.0,4338.205078,4388.717773,4293.333496,4360.769043,4409.871582,4417.436035,4431.794922,4486.025879,4441.410156,4387.692383,4425.641113,4225.384766,4428.461426
1698668549.861433,0.0,4337.436035,4388.077148,4298.333496,4361.666504,4404.230957,4415.128418,4427.94873,4488.974121,4445.0,4391.922852,4427.692383,4237.563965,4430.128418
1698668549.869241,0.0,4332.179688,4394.230957,4290.384766,4358.589844,4402.692383,4416.922852,4427.563965,4486.538574,4444.230957,4390.128418,4425.128418,4235.384766,4431.282227
1698668549.877049,0.0,4332.94873,4388.205078,4298.205078,4361.410156,4405.641113,4414.615234,4431.025879,4486.153809,4442.563965,4389.358887,4426.666504,4237.94873,4425.512695
1698668549.884858,0.0,4327.692383,4392.820313,4302.563965,4361.666504,4404.358887,4415.0,4430.641113,4482.307617,4443.205078,4391.410156,4422.94873,4229.871582,4424.871582
1698668549.892666,0.0,4333.077148,4393.589844,4296.794922,4358.333496,4401.666504,4416.922852,4426.922852,4480.512695,4438.205078,4387.563965,4422.94873,4229.230957,4425.769043
1698668549.900474,0.0,4338.077148,4384.358887,4296.666504,4359.615234,4404.743652,4417.05127,4427.692383,4484.743652,4444.102539,4389.743652,4427.436035,4241.025879,4426.922852
1698668549.908282,0.0,4328.589844,4391.922852,4295.0,4355.512695,4408.205078,4419.871582,4431.025879,4482.820313,4446.410156,4390.897461,4421.794922,4230.769043,4431.025879
1698668549.91609,0.0,4332.820313,4391.153809,4295.897461,4353.589844,4405.641113,4417.692383,4430.769043,4481.794922,4436.794922,4391.025879,4424.102539,4248.333496,4429.871582
1698668549.923899,0.0,4337.179688,4384.358887,4293.333496,4360.256348,4405.384766,4416.153809,4431.025879,4482.94873,4438.461426,4392.820313,4427.05127,4237.307617,4427.179688
1698668549.931707,0.0,4327.179688,4399.358887,4288.205078,4361.538574,4408.461426,4420.769043,4428.077148,4476.025879,4444.358887,4390.128418,4422.179688,4244.102539,4431.538574
1698668549.939515,0.0,4322.436035,4412.820313,4286.153809,4356.410156,4408.717773,4422.94873,4426.410156,4467.179688,4437.563965,4386.153809,4422.05127,4261.410156,4440.769043
1698668549.947323,0.0,4332.307617,4397.307617,4289.743652,4355.128418,4407.179688,4417.563965,4433.589844,4470.256348,4423.461426,4379.743652,4426.538574,4191.153809,4436.538574
1698668549.955131,0.0,4339.487305,4374.358887,4305.897461,4359.871582,4402.820313,4410.256348,4433.974121,4477.563965,4421.666504,4381.410156,4433.205078,4186.922852,4420.384766
1698668549.96294,0.0,4327.692383,4383.717773,4302.692383,4360.769043,4401.922852,4414.743652,4426.666504,4474.358887,4432.563965,4388.077148,4427.820313,4231.153809,4425.512695
1698668549.970748,0.0,4328.077148,4392.820313,4295.769043,4360.256348,4405.128418,4416.922852,4428.205078,4476.666504,4433.589844,4383.717773,4421.794922,4201.410156,4434.871582
1698668549.978556,0.0,4337.05127,4387.307617,4308.846191,4362.179688,4404.743652,4412.307617,4429.615234,4480.0,4434.871582,4385.769043,4427.307617,4181.794922,4426.538574
1698668549.986364,0.0,4329.102539,4400.128418,4300.128418,4360.0,4403.461426,4417.179688,4429.102539,4471.666504,4436.666504,4391.025879,4422.94873,4182.820313,4426.794922
1698668549.994173,0.0,4330.0,4397.436035,4289.743652,4359.743652,4404.230957,4414.615234,4432.179688,4473.461426,4433.846191,4386.666504,4421.922852,4215.512695,4432.436035
1698668550.001981,0.0,4333.205078,4390.384766,4292.179688,4360.256348,4405.897461,4408.974121,4429.871582,4481.794922,4439.871582,4386.922852,4428.846191,4226.538574,4432.820313
1698668550.009789,0.0,4325.384766,4398.589844,4296.666504,4358.461426,4405.128418,4414.230957,4429.358887,4475.256348,4438.205078,4386.666504,4430.384766,4197.692383,4428.846191
1698668550.017597,0.0,4329.102539,4395.384766,4308.717773,4360.897461,4402.820313,4416.666504,4433.205078,4470.641113,4433.846191,4389.358887,4431.282227,4211.025879,4422.563965
1698668550.025406,0.0,4335.641113,4398.077148,4305.256348,4359.871582,4402.436035,4418.333496,4434.102539,4479.487305,4437.820313,4392.692383,4428.461426,4226.666504,4426.538574
1698668550.033214,0.0,4336.922852,4394.487305,4300.384766,4358.205078,4402.436035,4419.230957,4431.410156,4487.94873,4437.307617,4388.205078,4428.077148,4201.922852,4431.794922
1698668550.041022,0.0,4333.333496,4389.743652,4300.512695,4360.128418,4403.333496,4417.692383,4431.153809,4486.282227,4441.153809,4390.897461,4426.922852,4184.487305,4434.230957
1698668550.04883,0.0,4327.05127,4393.461426,4292.563965,4359.487305,4406.282227,4415.0,4434.358887,4479.743652,4442.563965,4390.384766,4425.512695,4193.205078,4430.769043
1698668550.056638,0.0,4332.563965,4388.205078,4295.256348,4361.922852,4407.179688,4411.153809,4430.512695,4483.589844,4440.897461,4388.205078,4432.94873,4234.743652,4426.538574
1698668550.064447,0.0,4332.820313,4399.615234,4298.589844,4361.410156,4407.307617,4415.641113,4426.666504,4486.025879,4442.05127,4392.436035,4427.563965,4225.512695,4430.897461
1698668550.072255,0.0,4327.436035,4404.743652,4300.897461,4354.871582,4406.666504,4415.256348,4428.205078,4480.641113,4441.410156,4392.05127,4422.05127,4200.256348,4426.538574
1698668550.080063,0.0,4329.871582,4391.794922,4297.820313,4358.333496,4405.256348,4410.256348,4431.025879,4486.410156,4445.256348,4392.692383,4431.794922,4214.871582,4425.128418
1698668550.087871,0.0,4331.282227,4394.358887,4287.307617,4362.820313,4406.922852,4415.0,4432.820313,4490.897461,4442.436035,4390.128418,4431.666504,4212.307617,4431.025879
1698668550.095679,0.0,4332.436035,4393.077148,4294.358887,4360.641113,4407.307617,4414.358887,4428.846191,4485.641113,4437.692383,4390.0,4429.230957,4212.94873,4426.794922
1698668550.103488,0.0,4326.538574,4392.05127,4297.436035,4357.05127,4405.0,4413.717773,4429.487305,4479.487305,4443.974121,4394.102539,4430.0,4214.358887,4425.769043
1698668550.111296,0.0,4325.769043,4397.94873,4296.538574,4357.820313,4403.333496,4415.641113,4431.922852,4481.922852,4443.846191,4390.384766,4428.974121,4198.077148,4427.307617
1698668550.119104,0.0,4330.384766,4397.179688,4299.615234,4360.897461,4404.871582,4411.666504,4430.384766,4485.128418,4441.794922,4392.179688,4432.307617,4197.820313,4425.0
1698668550.126912,0.0,4326.922852,4397.307617,4290.128418,4359.615234,4408.077148,4413.205078,4431.794922,4475.0,4441.922852,4393.974121,4429.743652,4199.102539,4426.282227
1698668550.13472,0.0,4332.692383,4390.0,4295.128418,4359.358887,4406.282227,4416.025879,4429.871582,4474.230957,4439.743652,4388.333496,4429.358887,4207.820313,4428.461426
1698668550.142529,0.0,4335.641113,4390.769043,4293.589844,4361.025879,4403.717773,4415.0,4425.384766,4486.666504,4442.436035,4388.077148,4430.897461,4222.94873,4432.563965
1698668550.150337,0.0,4330.641113,4399.871582,4283.205078,4359.615234,4405.897461,4414.102539,4429.358887,4487.179688,4444.102539,4390.769043,4430.0,4205.897461,4430.641113
1698668550.158145,0.0,4329.102539,4394.230957,4295.512695,4358.717773,4405.897461,4412.307617,4431.538574,4480.897461,4444.230957,4393.589844,4432.307617,4186.666504,4424.743652
1698668550.165954,0.0,4326.538574,4396.794922,4299.102539,4359.487305,4404.487305,4415.897461,4428.461426,4480.897461,4443.333496,4391.410156,4427.307617,4183.846191,4428.974121
1698668550.173762,0.0,4331.538574,4395.769043,4296.666504,4359.487305,4404.358887,4415.769043,4429.230957,4486.794922,4440.128418,4389.358887,4428.461426,4217.436035,4428.333496
1698668550.18157,0.0,4329.871582,4390.128418,4294.230957,4356.410156,4405.128418,4410.384766,4431.025879,4484.615234,4443.077148,4394.615234,4432.94873,4231.410156,4425.256348
1698668550.189378,0.0,4326.025879,4393.974121,4288.974121,4358.077148,4405.384766,4410.769043,4428.589844,4478.846191,4443.333496,4392.05127,4429.358887,4199.102539,4429.358887
1698668550.197186,0.0,4334.871582,4387.94873,4294.743652,4363.461426,4403.974121,4411.666504,4426.025879,4485.384766,4443.077148,4389.871582,4431.153809,4207.94873,4427.179688
1698668550.204995,0.0,4333.077148,4390.128418,4294.743652,4360.897461,4405.512695,4413.974121,4429.230957,4487.94873,4444.102539,4391.666504,4427.05127,4212.307617,4424.615234
1698668550.212803,0.0,4328.205078,4396.666504,4300.897461,4358.333496,4407.692383,4415.128418,4433.077148,4482.436035,4438.205078,4389.102539,4423.205078,4197.05127,4423.333496
1698668550.220611,0.0,4329.358887,4398.333496,4306.153809,4361.153809,4407.692383,4414.358887,4431.025879,4482.563965,4442.05127,4392.94873,4428.333496,4213.589844,4425.769043
1698668550.228419,0.0,4328.717773,4398.205078,4294.871582,4359.615234,4407.179688,4416.025879,4430.769043,4483.846191,4444.615234,4394.487305,4428.589844,4206.666504,4430.384766
1698668550.236227,0.0,4330.512695,4388.333496,4298.205078,4359.102539,4404.871582,4413.205078,4432.94873,4481.666504,4440.512695,4392.05127,4427.94873,4196.282227,4423.589844
1698668550.244036,0.0,4328.589844,4397.563965,4305.0,4358.974121,4405.256348,4415.256348,4432.692383,4480.384766,4442.820313,4391.794922,4421.410156,4186.153809,4421.794922
1698668550.251844,0.0,4327.94873,4402.563965,4301.025879,4357.436035,4406.922852,4417.94873,4430.256348,4486.794922,4442.94873,4393.205078,4420.384766,4191.025879,4427.179688
1698668550.259652,0.0,4333.333496,4389.230957,4294.871582,4360.641113,4404.230957,4413.717773,4430.0,4490.256348,4445.384766,4398.205078,4430.256348,4220.128418,4428.589844
1698668550.26746,0.0,4337.820313,4390.128418,4287.05127,4359.743652,4403.077148,4415.512695,4431.282227,4484.615234,4444.102539,4393.589844,4427.307617,4210.897461,4431.410156
1698668550.275268,0.0,4338.846191,4390.897461,4295.128418,4359.102539,4405.641113,4417.820313,4431.153809,4484.358887,4439.743652,4389.358887,4423.461426,4200.0,4430.384766
1698668550.283077,0.0,4330.897461,4394.487305,4298.717773,4361.538574,4406.025879,4416.922852,4432.692383,4484.102539,4443.333496,4393.974121,4425.128418,4204.230957,4429.743652
1698668550.290885,0.0,4333.974121,4392.820313,4293.717773,4359.358887,4403.717773,4415.128418,4431.282227,4481.922852,4442.436035,4393.589844,4429.230957,4203.589844,4430.384766
1698668550.298693,0.0,4341.282227,4383.461426,4300.512695,4359.487305,4403.717773,4413.333496,4427.05127,4487.307617,4442.05127,4394.615234,4430.897461,4222.563965,4430.641113
1698668550.306501,0.0,4328.846191,4395.769043,4300.0,4360.128418,4405.769043,4416.922852,4432.05127,4485.256348,4440.897461,4395.769043,4422.820313,4212.05127,4430.0
1698668550.314309,0.0,4327.307617,4397.820313,4300.769043,4359.615234,4404.358887,4414.230957,4432.179688,4478.589844,4437.820313,4392.820313,4426.025879,4196.538574,4425.512695
1698668550.322118,0.0,4331.282227,4390.512695,4297.179688,4359.102539,4402.05127,4411.922852,4425.512695,4479.102539,4443.589844,4394.358887,4429.871582,4192.820313,4427.05127
1698668550.329926,0.0,4326.025879,4397.436035,4296.025879,4357.94873,4400.897461,4417.179688,4430.256348,4482.179688,4443.205078,4392.563965,4422.05127,4196.282227,4425.0
1698668550.337734,0.0,4327.05127,4396.025879,4310.128418,4359.358887,4401.794922,4416.025879,4436.666504,4484.743652,4440.641113,4390.641113,4423.205078,4225.128418,4421.025879
1698668550.345543,0.0,4322.05127,4399.615234,4302.179688,4359.230957,4406.025879,4414.743652,4433.974121,4480.769043,4442.179688,4389.358887,4425.128418,4214.358887,4426.666504
1698668550.353351,0.0,4324.487305,4396.922852,4295.256348,4360.0,4406.282227,4415.769043,4429.615234,4480.641113,4440.128418,4385.256348,4425.897461,4191.410156,4425.128418
1698668550.361159,0.0,4333.205078,4388.461426,4300.641113,4360.384766,4402.307617,4416.153809,4428.846191,4484.615234,4444.230957,4391.153809,4426.794922,4205.769043,4424.871582
1698668550.368967,0.0,4328.205078,4398.974121,4294.871582,4356.666504,4404.871582,4417.436035,4431.666504,4481.153809,4446.666504,4392.94873,4424.358887,4204.230957,4430.128418
1698668550.376775,0.0,4324.230957,4399.871582,4293.717773,4357.563965,4408.205078,4415.641113,4429.743652,4477.820313,4443.846191,4389.230957,4430.256348,4200.512695,4425.384766
1698668550.384584,0.0,4322.94873,4399.743652,4293.333496,4360.0,4405.384766,4416.538574,4425.897461,4476.666504,4442.820313,4389.615234,4431.666504,4190.0,4421.666504
1698668550.392392,0.0,4327.820313,4399.615234,4297.820313,4359.230957,4402.94873,4416.410156,4427.692383,4481.922852,4439.871582,4387.692383,4428.333496,4202.692383,4423.974121
1698668550.4002,0.0,4333.077148,4393.077148,4297.94873,4356.922852,4403.846191,4414.743652,4430.769043,4487.179688,4442.436035,4391.794922,4428.461426,4227.820313,4426.025879
1698668550.408008,0.0,4330.128418,4396.410156,4290.641113,4354.743652,4405.128418,4418.333496,4432.692383,4483.077148,4442.692383,4391.666504,4424.102539,4200.769043,4426.922852
1698668550.415816,0.0,4329.871582,4395.384766,4303.846191,4358.717773,4406.153809,4418.205078,4429.871582,4482.692383,4436.794922,4387.820313,4422.307617,4192.94873,4425.769043
1698668550.423625,0.0,4330.128418,4399.102539,4307.05127,4360.641113,4406.794922,4418.717773,4427.820313,4488.333496,4438.589844,4391.025879,4421.666504,4214.230957,4428.846191
1698668550.431433,0.0,4331.666504,4400.0,4298.717773,4357.94873,4405.769043,4417.820313,4430.384766,4488.846191,4440.897461,4394.102539,4425.128418,4207.94873,4426.794922
1698668550.439241,0.0,4334.230957,4393.717773,4301.410156,4358.205078,4405.641113,4413.589844,4429.615234,4484.615234,4443.461426,4394.615234,4430.256348,4210.897461,4423.205078
1698668550.447049,0.0,4330.256348,4403.589844,4300.897461,4359.487305,4407.820313,4416.410156,4430.128418,4480.512695,4441.666504,4389.743652,4423.974121,4207.179688,4429.358887
1698668550.454857,0.0,4327.820313,4402.94873,4306.538574,4359.615234,4406.410156,4415.897461,4433.205078,4481.538574,4437.820313,4388.846191,4424.102539,4201.153809,4425.256348
1698668550.462666,0.0,4323.717773,4397.307617,4300.769043,4359.358887,4404.615234,4412.820313,4433.974121,4484.743652,4442.05127,4392.820313,4427.820313,4198.333496,4423.846191
1698668550.470474,0.0,4324.358887,4396.922852,4289.871582,4358.589844,4403.717773,4413.589844,4432.436035,4485.641113,4441.282227,4389.487305,4426.153809,4198.333496,4431.538574
1698668550.478282,0.0,4331.538574,4393.589844,4300.769043,4359.743652,4404.743652,4414.615234,4431.282227,4483.717773,4440.769043,4390.128418,4429.102539,4216.538574,4427.179688
1698668550.48609,0.0,4324.743652,4401.025879,4301.025879,4359.102539,4408.461426,4416.538574,4432.307617,4474.487305,4440.897461,4392.436035,4426.666504,4213.461426,4419.871582
1698668550.493899,0.0,4322.307617,4398.846191,4293.846191,4358.461426,4407.563965,4412.179688,4430.256348,4473.717773,4437.179688,4390.256348,4426.025879,4197.94873,4422.307617
1698668550.501707,0.0,4329.230957,4391.666504,4293.974121,4360.384766,4403.589844,4412.563965,4428.589844,4485.256348,4441.153809,4393.589844,4427.436035,4192.563965,4431.538574
1698668550.509515,0.0,4327.563965,4397.563965,4296.282227,4359.358887,4404.487305,4418.846191,4432.436035,4486.922852,4443.205078,4392.692383,4423.461426,4190.897461,4429.358887
1698668550.517323,0.0,4327.179688,4395.128418,4300.641113,4356.794922,4406.922852,4415.0,4431.410156,4486.794922,4442.820313,4392.05127,4425.769043,4219.230957,4422.94873
1698668550.525132,0.0,4328.589844,4392.692383,4290.769043,4356.538574,4406.282227,4413.461426,4427.307617,4486.538574,4444.102539,4393.846191,4426.282227,4222.692383,4430.256348
1698668550.53294,0.0,4327.179688,4393.333496,4289.871582,4358.461426,4404.487305,4416.153809,4428.846191,4482.563965,4440.256348,4390.384766,4426.410156,4206.153809,4429.871582
1698668550.540748,0.0,4320.384766,4396.153809,4302.563965,4359.358887,4405.128418,4415.128418,4430.641113,4484.102539,4440.769043,4391.794922,4427.820313,4202.563965,4423.589844
1698668550.548556,0.0,4322.94873,4398.461426,4300.897461,4357.436035,4408.717773,4414.871582,4428.589844,4490.256348,4442.820313,4390.897461,4422.179688,4193.974121,4426.666504
1698668550.556364,0.0,4337.692383,4389.102539,4300.128418,4359.102539,4407.94873,4413.717773,4429.358887,4490.512695,4443.846191,4388.974121,4423.589844,4203.717773,4426.282227
1698668550.564173,0.0,4331.025879,4396.025879,4298.205078,4360.128418,4404.230957,4415.128418,4433.205078,4482.692383,4445.641113,4389.487305,4426.025879,4207.436035,4426.153809
1698668550.571981,0.0,4324.487305,4403.077148,4299.487305,4357.563965,4404.102539,4415.641113,4431.538574,4485.128418,4440.897461,4389.871582,4425.128418,4194.871582,4427.05127
1698668550.579789,0.0,4331.666504,4390.256348,4301.410156,4356.538574,4405.769043,4412.820313,4427.820313,4489.487305,4441.410156,4394.102539,4428.333496,4190.769043,4424.871582
1698668550.587597,0.0,4327.179688,4392.692383,4289.871582,4357.05127,4406.282227,4413.333496,4430.128418,4478.333496,4442.05127,4391.410156,4429.230957,4188.461426,4426.282227
1698668550.595405,0.0,4325.256348,4392.436035,4292.692383,4357.179688,4404.615234,4411.538574,4431.025879,4476.153809,4438.461426,4387.05127,4431.282227,4211.153809,4426.410156
1698668550.603214,0.0,4326.666504,4392.820313,4295.0,4357.692383,4405.641113,4413.461426,4427.436035,4483.974121,4443.333496,4389.871582,4427.692383,4220.0,4427.820313
1698668550.611022,0.0,4323.077148,4405.128418,4294.871582,4357.179688,4406.282227,4416.153809,4429.871582,4482.94873,4444.102539,4391.282227,4424.230957,4193.333496,4425.128418
1698668550.61883,0.0,4322.94873,4401.922852,4303.589844,4357.436035,4403.077148,4411.794922,4433.333496,4476.282227,4440.769043,4392.179688,4429.230957,4195.256348,4421.282227
1698668550.626638,0.0,4327.179688,4394.615234,4295.769043,4357.820313,4405.256348,4413.461426,4433.717773,4473.589844,4438.077148,4389.102539,4425.256348,4197.179688,4426.410156
1698668550.634447,0.0,4331.025879,4390.0,4293.589844,4358.717773,4407.94873,4413.461426,4430.128418,4482.692383,4437.563965,4386.666504,4426.025879,4208.333496,4427.692383
1698668550.642255,0.0,4325.128418,4393.589844,4297.179688,4357.94873,4405.641113,4412.436035,4429.487305,4487.94873,4445.0,4392.05127,4429.102539,4221.794922,4426.410156
1698668550.650063,0.0,4324.871582,4395.384766,4290.512695,4357.563965,4405.641113,4415.769043,4433.717773,4485.256348,4443.974121,4388.974121,4424.743652,4203.717773,4428.205078
1698668550.657871,0.0,4333.589844,4388.461426,4290.128418,4361.153809,4407.563965,4413.589844,4432.179688,4488.077148,4440.897461,4386.922852,4427.563965,4201.282227,4427.820313
1698668550.665679,0.0,4330.641113,4396.922852,4293.333496,4360.384766,4405.128418,4414.358887,4430.897461,4485.256348,4441.282227,4389.871582,4425.384766,4192.820313,4427.563965
1698668550.673488,0.0,4333.333496,4394.102539,4303.333496,4357.94873,4400.897461,4414.615234,4432.563965,4480.641113,4438.205078,4388.333496,4424.615234,4189.743652,4425.641113
1698668550.681296,0.0,4335.384766,4387.692383,4300.128418,4358.077148,4402.820313,4412.436035,4431.410156,4486.025879,4443.077148,4390.641113,4428.461426,4217.179688,4429.102539
1698668550.689104,0.0,4323.717773,4396.025879,4287.05127,4356.922852,4406.410156,4414.358887,4431.538574,4488.461426,4444.487305,4390.256348,4424.871582,4211.666504,4431.538574
1698668550.696912,0.0,4327.94873,4391.922852,4297.563965,4358.461426,4405.384766,4413.077148,4431.410156,4486.794922,4442.179688,4390.769043,4424.358887,4189.743652,4425.0
1698668550.704721,0.0,4331.794922,4392.820313,4296.410156,4358.077148,4404.230957,4413.717773,4433.205078,4482.307617,4443.974121,4392.436035,4424.487305,4180.128418,4426.666504
1698668550.712529,0.0,4321.282227,4395.512695,4287.820313,4356.153809,4403.846191,4413.461426,4433.717773,4477.436035,4441.025879,4390.512695,4426.666504,4200.641113,4426.538574
1698668550.720337,0.0,4324.615234,4390.128418,4297.820313,4358.974121,4403.846191,4411.666504,4431.410156,4483.205078,4442.307617,4392.436035,4429.615234,4230.512695,4425.0
1698668550.728145,0.0,4335.256348,4393.333496,4294.102539,4360.256348,4405.384766,4413.717773,4431.025879,4491.538574,4443.974121,4391.410156,4426.538574,4215.0,4431.666504
1698668550.735953,0.0,4331.666504,4394.743652,4289.487305,4357.563965,4405.897461,4411.666504,4431.410156,4487.820313,4439.743652,4390.256348,4428.846191,4196.794922,4428.077148
1698668550.743762,0.0,4321.794922,4395.512695,4293.205078,4355.0,4406.922852,4414.358887,4429.615234,4479.615234,4438.205078,4391.794922,4426.538574,4190.384766,4426.666504
1698668550.75157,0.0,4333.333496,4390.641113,4296.025879,4357.563965,4407.820313,4418.846191,4427.692383,4486.794922,4438.589844,4389.358887,4422.179688,4193.077148,4430.512695
1698668550.759378,0.0,4340.256348,4386.025879,4296.794922,4363.974121,4406.538574,4415.0,4429.615234,4493.717773,4443.333496,4393.461426,4427.94873,4220.128418,4425.897461
1698668550.767186,0.0,4323.974121,4394.871582,4291.025879,4362.692383,4405.128418,4414.871582,4433.077148,4478.589844,4442.563965,4392.692383,4426.794922,4210.128418,4421.794922
1698668550.774994,0.0,4325.769043,4388.717773,4294.871582,4358.717773,4403.974121,4415.384766,4431.794922,4474.871582,4436.922852,4386.794922,4425.641113,4192.692383,4424.743652
1698668550.782803,0.0,4330.897461,4388.461426,4292.436035,4359.358887,4405.384766,4414.487305,4428.717773,4488.717773,4441.922852,4393.589844,4427.307617,4190.0,4430.897461
1698668550.790611,0.0,4321.025879,4404.743652,4289.743652,4358.974121,4407.436035,4413.717773,4431.538574,4486.153809,4443.717773,4394.615234,4423.589844,4190.641113,4425.512695
1698668550.798419,0.0,4321.538574,4401.922852,4299.871582,4359.102539,4404.487305,4411.794922,4433.846191,4475.128418,4441.410156,4389.615234,4424.230957,4213.589844,4421.025879
1698668550.806227,0.0,4326.922852,4397.563965,4296.922852,4358.717773,4402.692383,4413.974121,4431.922852,4478.333496,4439.871582,4387.94873,4425.641113,4216.794922,4431.666504
1698668550.814036,0.0,4328.717773,4394.487305,4300.769043,4359.487305,4405.0,4414.358887,4431.794922,4482.436035,4437.05127,4389.871582,4429.230957,4197.436035,4429.487305
1698668550.821844,0.0,4326.538574,4395.897461,4298.717773,4358.589844,4407.05127,4414.871582,4432.692383,4476.153809,4439.358887,4395.256348,4429.871582,4183.205078,4423.717773
1698668550.829652,0.0,4330.512695,4400.641113,4287.94873,4356.538574,4406.410156,4418.333496,4432.692383,4477.436035,4441.666504,4392.563965,4424.102539,4189.358887,4430.769043
1698668550.83746,0.0,4336.282227,4389.230957,4297.563965,4361.153809,4405.256348,4415.769043,4430.641113,4483.717773,4442.436035,4391.025879,4427.436035,4221.922852,4430.256348
1698668550.845268,0.0,4331.538574,4391.922852,4296.922852,4361.922852,4406.282227,4414.358887,4431.538574,4478.589844,4442.179688,4393.333496,4427.692383,4215.128418,4427.179688
1698668550.853077,0.0,4332.436035,4396.922852,4292.179688,4357.563965,4406.410156,4414.615234,4432.307617,4480.512695,4440.256348,4392.563965,4425.641113,4190.641113,4427.563965
1698668550.860885,0.0,4335.512695,4390.384766,4300.384766,4357.692383,4403.846191,4415.769043,4429.871582,4489.615234,4444.615234,4392.563965,4426.922852,4183.974121,4425.256348
1698668550.868693,0.0,4329.615234,4391.922852,4300.897461,4359.743652,4402.820313,4418.077148,4431.282227,4483.974121,4443.333496,4390.641113,4423.974121,4178.205078,4423.846191
1698668550.876501,0.0,4326.538574,4390.641113,4297.436035,4359.487305,4405.256348,4412.94873,4431.666504,4476.025879,4437.94873,4390.897461,4426.794922,4213.717773,4426.410156
1698668550.88431,0.0,4323.717773,4394.487305,4291.153809,4356.666504,4405.897461,4412.179688,4432.563965,4476.794922,4441.410156,4391.922852,4426.922852,4224.230957,4427.436035
1698668550.892118,0.0,4323.589844,4396.410156,4293.846191,4358.205078,4402.94873,4416.153809,4433.974121,4480.897461,4442.05127,4390.128418,4424.871582,4188.589844,4419.487305
1698668550.899926,0.0,4329.230957,4391.153809,4295.256348,4361.794922,4402.436035,4415.769043,4430.128418,4486.025879,4442.692383,4393.717773,4429.230957,4191.538574,4422.179688
1698668550.907734,0.0,4330.512695,4393.333496,4286.025879,4358.333496,4405.512695,4416.025879,4429.615234,4484.102539,4442.94873,4392.05127,4427.179688,4206.282227,4432.94873
1698668550.915542,0.0,4331.538574,4391.410156,4293.205078,4357.179688,4407.563965,4413.205078,4430.641113,4480.641113,4441.538574,4388.333496,4427.94873,4215.384766,4428.461426
1698668550.923351,0.0,4329.230957,4392.563965,4295.0,4361.666504,4406.538574,4413.974121,4430.256348,4481.410156,4444.358887,4392.05127,4430.128418,4212.307617,4428.205078
1698668550.931159,0.0,4327.436035,4392.820313,4289.871582,4362.05127,4405.897461,4417.307617,4431.025879,4484.102539,4439.615234,4392.563965,4426.025879,4197.307617,4431.922852
1698668550.938967,0.0,4329.871582,4387.307617,4295.128418,4358.846191,4405.641113,4412.94873,4430.384766,4484.358887,4439.230957,4392.820313,4424.615234,4200.641113,4428.846191
1698668550.946775,0.0,4327.820313,4390.897461,4283.717773,4355.897461,4406.922852,4412.436035,4430.384766,4481.153809,4441.410156,4389.487305,4423.589844,4202.820313,4430.0
1698668550.954584,0.0,4330.256348,4390.512695,4282.307617,4358.077148,4408.333496,4414.487305,4432.307617,4484.743652,4437.563965,4389.230957,4424.743652,4212.820313,4428.717773
1698668550.962392,0.0,4328.589844,4397.179688,4298.717773,4359.358887,4407.692383,4415.0,4434.102539,4481.153809,4439.743652,4395.897461,4425.256348,4219.615234,4427.692383
1698668550.9702,0.0,4322.563965,4405.897461,4297.563965,4356.794922,4407.94873,4415.641113,4433.589844,4473.333496,4438.461426,4392.692383,4424.230957,4196.025879,4428.461426
1698668550.978008,0.0,4327.820313,4393.589844,4292.179688,4358.717773,4407.820313,4413.205078,4431.153809,4480.769043,4438.205078,4392.563965,4428.589844,4186.282227,4426.538574
1698668550.985816,0.0,4328.333496,4393.846191,4292.94873,4358.846191,4408.077148,4414.743652,4431.025879,4484.871582,4440.384766,4395.256348,4425.384766,4184.358887,4427.307617
1698668550.993625,0.0,4326.153809,4396.922852,4294.871582,4357.179688,4407.94873,4414.487305,4433.333496,4481.282227,4437.05127,4391.922852,4422.94873,4202.820313,4426.794922
1698668551.001433,0.0,4326.794922,4391.538574,4289.487305,4358.974121,4406.153809,4413.846191,4434.487305,4484.615234,4440.897461,4393.846191,4423.333496,4225.897461,4425.512695
1698668551.009241,0.0,4330.897461,4396.538574,4286.153809,4359.230957,4404.743652,4416.794922,4432.563965,4487.307617,4441.538574,4392.820313,4419.615234,4205.0,4424.358887
1698668551.017049,0.0,4330.641113,4395.128418,4299.615234,4358.461426,4405.256348,4413.205078,4429.102539,4482.05127,4437.820313,4391.410156,4425.256348,4195.769043,4420.897461
1698668551.024857,0.0,4320.128418,4396.922852,4300.769043,4357.05127,4409.743652,4413.333496,4432.05127,4477.94873,4437.563965,4392.563965,4427.692383,4188.461426,4423.205078
1698668551.032666,0.0,4324.743652,4396.538574,4295.128418,4356.794922,4407.563965,4414.743652,4437.05127,4480.769043,4435.128418,4389.615234,4424.102539,4189.871582,4427.820313
1698668551.040474,0.0,4334.230957,4387.94873,4295.512695,4357.563965,4402.307617,4413.589844,4432.692383,4483.846191,4440.897461,4391.922852,4426.794922,4222.94873,4430.512695
1698668551.048282,0.0,4329.743652,4388.461426,4293.846191,4356.922852,4406.025879,4417.307617,4429.230957,4483.974121,4443.589844,4390.641113,4425.641113,4210.769043,4429.358887
1698668551.05609,0.0,4330.0,4388.589844,4300.897461,4357.820313,4408.846191,4415.512695,4432.692383,4484.102539,4437.692383,4387.307617,4425.128418,4189.102539,4423.077148
1698668551.063899,0.0,4333.077148,4394.871582,4292.05127,4359.358887,4405.769043,4414.487305,4436.153809,4482.05127,4438.333496,4391.666504,4423.717773,4192.94873,4427.820313
1698668551.071707,0.0,4333.077148,4392.94873,4279.743652,4359.615234,4404.487305,4415.256348,4432.820313,4482.692383,4437.05127,4391.538574,4424.358887,4203.589844,4431.153809
1698668551.079515,0.0,4331.282227,4386.666504,4287.94873,4357.179688,4406.025879,4413.974121,4427.692383,4483.589844,4438.589844,4391.666504,4430.384766,4225.769043,4423.589844
1698668551.087323,0.0,4330.256348,4397.94873,4288.205078,4355.384766,4407.563965,4417.436035,4431.922852,4479.615234,4441.282227,4391.538574,4425.641113,4217.05127,4426.282227
1698668551.095132,0.0,4335.641113,4391.025879,4285.641113,4359.102539,4407.307617,4416.025879,4435.512695,4486.410156,4437.05127,4389.358887,4423.461426,4192.179688,4430.897461
1698668551.10294,0.0,4333.205078,4385.384766,4284.615234,4361.153809,4406.153809,4414.102539,4433.333496,4489.615234,4437.820313,4391.538574,4425.256348,4177.307617,4430.384766
1698668551.110748,0.0,4331.025879,4395.897461,4290.897461,4358.077148,4404.871582,4417.307617,4433.846191,4481.666504,4438.333496,4390.769043,4423.077148,4189.487305,4428.846191
1698668551.118556,0.0,4335.641113,4391.410156,4299.615234,4356.153809,4403.717773,4415.256348,4433.717773,4484.358887,4437.436035,4391.153809,4424.743652,4225.641113,4426.410156
1698668551.126364,0.0,4328.717773,4390.641113,4292.436035,4356.410156,4404.743652,4413.333496,4433.205078,4483.461426,4436.794922,4389.102539,4420.897461,4208.205078,4425.641113
1698668551.134173,0.0,4330.256348,4392.94873,4298.077148,4358.333496,4406.153809,4413.333496,4431.922852,4481.410156,4435.769043,4386.282227,4422.05127,4188.205078,4422.436035
1698668551.141981,0.0,4334.743652,4388.846191,4298.333496,4358.205078,4405.512695,4415.128418,4428.589844,4488.974121,4440.128418,4392.05127,4427.179688,4206.922852,4429.615234
1698668551.149789,0.0,4329.102539,4384.230957,4281.025879,4355.0,4405.641113,4416.666504,4427.05127,4487.94873,4438.589844,4392.307617,4423.333496,4210.384766,4436.922852
1698668551.157597,0.0,4331.538574,4383.205078,4284.615234,4359.487305,4407.563965,4412.179688,4428.974121,4480.512695,4436.282227,4390.897461,4424.615234,4216.153809,4428.974121
1698668551.165405,0.0,4327.692383,4396.922852,4289.102539,4361.410156,4407.692383,4412.179688,4433.461426,4477.94873,4435.641113,4390.512695,4426.794922,4201.666504,4426.282227
1698668551.173214,0.0,4325.897461,4397.436035,4291.666504,4356.538574,4402.94873,4413.846191,4434.615234,4482.563965,4433.333496,4388.461426,4424.615234,4193.717773,4427.563965
1698668551.181022,0.0,4334.615234,4390.897461,4299.230957,4358.461426,4403.717773,4413.205078,4431.538574,4485.384766,4438.077148,4391.153809,4422.179688,4221.922852,4426.538574
1698668551.18883,0.0,4337.563965,4394.358887,4295.0,4360.384766,4407.94873,4415.256348,4429.487305,4482.692383,4438.333496,4390.256348,4418.846191,4213.717773,4428.461426
1698668551.196638,0.0,4335.384766,4384.230957,4292.94873,4360.769043,4404.487305,4411.538574,4429.358887,4481.922852,4436.025879,4389.743652,4424.743652,4182.05127,4428.974121
1698668551.204446,0.0,4328.077148,4386.153809,4287.179688,4358.846191,4403.333496,4409.743652,4430.897461,4478.974121,4435.641113,4390.128418,4428.205078,4180.0,4430.0
1698668551.212255,0.0,4326.922852,4396.282227,4288.846191,4356.025879,4405.897461,4413.205078,4433.333496,4480.897461,4430.769043,4385.0,4424.615234,4213.717773,4428.077148
1698668551.220063,0.0,4329.871582,4389.102539,4296.794922,4358.717773,4403.846191,4414.743652,4432.692383,4486.410156,4435.512695,4386.025879,4423.205078,4236.794922,4428.077148
1698668551.227871,0.0,4327.05127,4391.410156,4292.436035,4359.358887,4404.487305,4415.128418,4432.436035,4481.153809,4438.717773,4385.641113,4422.563965,4208.333496,4428.333496
1698668551.23568,0.0,4327.05127,4393.461426,4300.128418,4358.461426,4407.05127,4413.846191,4431.410156,4478.589844,4434.487305,4385.384766,4427.05127,4196.794922,4421.410156
1698668551.243488,0.0,4330.641113,4391.666504,4302.307617,4358.333496,4405.769043,4417.05127,4427.94873,4484.615234,4437.94873,4391.025879,4424.102539,4200.641113,4427.05127
1698668551.251296,0.0,4336.025879,4392.05127,4291.666504,4357.563965,4404.487305,4417.94873,4428.974121,4485.0,4437.436035,4389.615234,4419.615234,4200.0,4432.692383
1698668551.259104,0.0,4333.205078,4392.563965,4295.0,4357.436035,4405.641113,4412.179688,4432.94873,4481.025879,4434.358887,4389.487305,4425.641113,4223.589844,4423.461426
1698668551.266912,0.0,4327.307617,4397.436035,4298.974121,4357.563965,4407.179688,4414.615234,4435.128418,4481.153809,4433.589844,4390.128418,4421.153809,4212.692383,4424.358887
1698668551.274721,0.0,4336.025879,4387.05127,4300.128418,4358.333496,4405.512695,4418.333496,4432.307617,4482.820313,4431.153809,4387.94873,4419.487305,4193.974121,4429.358887
1698668551.282529,0.0,4335.0,4390.897461,4299.615234,4357.307617,4403.974121,4414.871582,4430.128418,4480.256348,4436.666504,4391.153809,4425.384766,4188.461426,4428.974121
1698668551.290337,0.0,4324.487305,4404.487305,4298.205078,4356.538574,4404.871582,4411.025879,4432.436035,4482.692383,4440.384766,4391.538574,4421.282227,4189.615234,4427.820313
1698668551.298145,0.0,4330.897461,4388.974121,4293.846191,4359.871582,4405.128418,4411.153809,4432.563965,4490.0,4436.410156,4388.717773,4417.820313,4220.256348,4426.922852
1698668551.305953,0.0,4336.794922,4382.820313,4282.307617,4360.256348,4405.384766,4417.563965,4433.333496,4485.256348,4432.692383,4386.794922,4419.871582,4217.820313,4431.410156
1698668551.313762,0.0,4335.512695,4389.230957,4291.922852,4358.589844,4404.615234,4416.153809,4431.794922,4478.717773,4432.820313,4386.153809,4423.461426,4195.641113,4430.897461
1698668551.32157,0.0,4330.897461,4390.641113,4299.871582,4357.563965,4403.461426,4412.179688,4429.743652,4481.922852,4436.666504,4390.128418,4423.717773,4202.179688,4427.05127
1698668551.329378,0.0,4326.538574,4390.128418,4283.205078,4357.05127,4404.615234,4414.871582,4432.563965,4482.820313,4432.94873,4388.077148,4424.358887,4207.307617,4429.871582
1698668551.337186,0.0,4325.641113,4386.666504,4285.512695,4357.692383,4404.358887,4411.282227,4432.94873,4479.615234,4432.307617,4385.128418,4432.05127,4219.615234,4430.256348
1698668551.344994,0.0,4317.563965,4396.922852,4291.666504,4354.743652,4405.128418,4412.05127,4432.94873,4475.512695,4437.436035,4387.563965,4428.589844,4211.538574,4428.333496
1698668551.352803,0.0,4322.820313,4400.256348,4290.512695,4355.128418,4406.794922,4415.384766,4434.615234,4478.717773,4433.461426,4386.282227,4418.846191,4200.769043,4426.794922
1698668551.360611,0.0,4336.153809,4388.205078,4293.333496,4360.897461,4404.871582,4412.179688,4432.436035,4484.743652,4434.230957,4387.307617,4420.769043,4208.077148,4427.94873
1698668551.368419,0.0,4332.94873,4388.974121,4291.282227,4360.256348,4404.230957,4413.461426,4430.641113,4479.102539,4435.897461,4386.153809,4423.333496,4195.0,4427.05127
1698668551.376227,0.0,4332.307617,4392.307617,4294.743652,4358.077148,4406.538574,4413.589844,4431.025879,4478.589844,4433.205078,4386.794922,4426.282227,4205.897461,4426.025879
1698668551.384036,0.0,4335.512695,4394.102539,4293.461426,4358.205078,4406.538574,4413.461426,4432.05127,4483.974121,4435.128418,4393.077148,4426.025879,4225.512695,4430.512695
1698668551.391844,0.0,4336.538574,4390.897461,4294.743652,4357.820313,4402.94873,4415.641113,4432.179688,4481.666504,4434.487305,4391.922852,4422.563965,4207.94873,4426.538574
1698668551.399652,0.0,4335.0,4386.282227,4298.461426,4358.333496,4401.410156,4414.102539,4430.384766,4478.077148,4432.94873,4389.615234,4423.846191,4195.897461,4423.077148
1698668551.40746,0.0,4330.384766,4393.717773,4287.307617,4357.307617,4402.94873,4412.94873,4431.794922,4476.153809,4429.102539,4384.871582,4423.589844,4200.641113,4430.0
1698668551.415269,0.0,4332.179688,4389.871582,4287.307617,4357.307617,4403.589844,4410.256348,4433.461426,4478.077148,4427.94873,4384.358887,4426.410156,4213.461426,4429.102539
1698668551.423077,0.0,4329.102539,4389.230957,4290.641113,4356.282227,4404.487305,4411.025879,4433.461426,4476.282227,4435.256348,4389.615234,4427.436035,4209.743652,4424.487305
1698668551.430885,0.0,4329.615234,4395.641113,4291.282227,4354.871582,4404.487305,4413.846191,4433.717773,4474.615234,4435.512695,4383.333496,4423.717773,4195.512695,4425.0
1698668551.438693,0.0,4337.05127,4386.410156,4298.461426,4357.05127,4401.922852,4412.307617,4432.563965,4482.563965,4433.589844,4380.769043,4422.563965,4205.512695,4427.563965
1698668551.446501,0.0,4330.384766,4389.743652,4294.102539,4356.666504,4402.436035,4414.358887,4432.820313,4483.717773,4432.692383,4385.641113,4418.846191,4204.743652,4429.871582
1698668551.45431,0.0,4327.179688,4394.487305,4296.282227,4355.256348,4407.05127,4414.871582,4433.589844,4477.692383,4428.077148,4386.153809,4421.666504,4206.410156,4425.769043
1698668551.462118,0.0,4331.794922,4390.256348,4301.666504,4358.717773,4408.974121,4414.487305,4432.05127,4479.358887,4431.282227,4389.358887,4423.333496,4206.794922,4425.384766
1698668551.469926,0.0,4332.179688,4392.179688,4294.230957,4361.025879,4405.897461,4415.641113,4432.179688,4482.436035,4433.461426,4388.205078,4419.102539,4197.692383,4430.384766
1698668551.477734,0.0,4331.538574,4391.410156,4293.974121,4359.102539,4406.153809,4411.794922,4433.077148,4482.436035,4431.153809,4385.0,4423.461426,4226.666504,4424.743652
1698668551.485542,0.0,4328.717773,4395.512695,4290.769043,4356.025879,4408.846191,4413.333496,4432.820313,4482.307617,4431.153809,4383.077148,4421.282227,4219.487305,4424.230957
1698668551.493351,0.0,4333.077148,4391.025879,4289.743652,4355.769043,4407.307617,4416.025879,4431.153809,4482.692383,4430.0,4380.897461,4417.436035,4188.077148,4430.256348
1698668551.501159,0.0,4333.205078,4389.487305,4295.641113,4360.128418,4404.358887,4412.94873,4429.871582,4479.487305,4434.743652,4384.743652,4423.077148,4202.05127,4428.205078
1698668551.508967,0.0,4327.307617,4401.025879,4296.410156,4362.179688,4405.769043,4412.436035,4434.102539,4474.615234,4434.743652,4385.384766,4422.05127,4203.717773,4422.307617
1698668551.516775,0.0,4333.974121,4393.333496,4300.128418,4358.461426,4406.153809,4413.974121,4433.717773,4478.717773,4431.922852,4384.487305,4420.641113,4198.589844,4421.538574
1698668551.524583,0.0,4333.461426,4391.538574,4294.487305,4352.94873,4405.0,4417.563965,4431.153809,4478.974121,4434.743652,4384.743652,4421.794922,4197.436035,4430.769043
1698668551.532392,0.0,4328.077148,4391.410156,4292.820313,4355.769043,4405.384766,4416.538574,4432.179688,4472.563965,4432.692383,4382.179688,4422.563965,4202.94873,4431.153809
1698668551.5402,0.0,4329.102539,4384.743652,4293.717773,4361.025879,4404.102539,4411.153809,4433.205078,4477.563965,4435.897461,4385.384766,4422.307617,4213.589844,4426.538574
1698668551.548008,0.0,4328.974121,4391.025879,4285.0,4355.0,4403.589844,4411.794922,4434.743652,4479.743652,4437.692383,4384.615234,4419.487305,4200.897461,4427.307617
1698668551.555816,0.0,4334.358887,4385.384766,4289.615234,4353.589844,4405.384766,4411.025879,4432.94873,4475.512695,4430.769043,4382.94873,4426.538574,4208.077148,4423.205078
1698668551.563625,0.0,4332.94873,4383.333496,4290.897461,4357.820313,4407.307617,4413.717773,4429.871582,4474.615234,4431.282227,4384.871582,4427.94873,4213.846191,4428.205078
1698668551.571433,0.0,4328.589844,4394.871582,4295.641113,4357.179688,4405.641113,4415.897461,4430.0,4478.333496,4432.820313,4380.769043,4422.179688,4204.743652,4433.205078
1698668551.579241,0.0,4331.153809,4392.307617,4302.179688,4357.820313,4403.205078,4411.538574,4431.410156,4482.436035,4432.307617,4382.179688,4425.128418,4222.94873,4427.820313
1698668551.587049,0.0,4329.230957,4388.205078,4285.128418,4357.692383,4406.153809,4413.846191,4435.769043,4480.128418,4427.692383,4383.077148,4424.358887,4212.820313,4424.871582
1698668551.594858,0.0,4331.922852,4388.205078,4289.743652,4357.94873,4407.179688,4415.897461,4434.743652,4479.487305,4426.538574,4379.615234,4423.717773,4193.461426,4422.94873
1698668551.602666,0.0,4334.358887,4391.282227,4306.282227,4360.769043,4405.512695,4414.743652,4430.0,4478.077148,4436.410156,4382.307617,4421.794922,4213.717773,4428.589844
1698668551.610474,0.0,4331.538574,4391.153809,4296.025879,4360.256348,4407.436035,4413.846191,4431.025879,4474.615234,4434.487305,4382.436035,4418.974121,4215.641113,4432.692383
1698668551.618282,0.0,4331.538574,4381.282227,4287.307617,4357.94873,4407.94873,4411.538574,4433.974121,4478.717773,4427.179688,4383.205078,4423.974121,4193.846191,4425.769043
1698668551.62609,0.0,4329.871582,4383.846191,4288.974121,4356.922852,4405.128418,4415.0,4430.641113,4477.820313,4427.179688,4381.922852,4420.769043,4179.102539,4427.307617
1698668551.633899,0.0,4335.512695,4386.410156,4297.563965,4357.692383,4405.128418,4414.487305,4427.05127,4475.512695,4426.153809,4379.102539,4420.128418,4213.205078,4431.282227
1698668551.641707,0.0,4336.282227,4387.436035,4297.94873,4355.512695,4406.410156,4409.102539,4427.692383,4480.641113,4429.743652,4383.974121,4425.897461,4237.436035,4430.897461
1698668551.649515,0.0,4330.0,4395.384766,4292.179688,4352.94873,4404.871582,4411.666504,4432.436035,4479.487305,4430.384766,4382.436035,4422.94873,4203.461426,4430.128418
1698668551.657323,0.0,4331.282227,4390.384766,4296.538574,4357.05127,4403.589844,4411.410156,4435.128418,4471.538574,4428.205078,4379.102539,4423.461426,4196.282227,4425.641113
1698668551.665131,0.0,4328.077148,4390.128418,4290.641113,4358.589844,4406.410156,4410.769043,4432.563965,4468.846191,4427.820313,4380.897461,4425.128418,4202.179688,4425.0
1698668551.67294,0.0,4329.615234,4387.820313,4290.512695,4355.128418,4406.410156,4412.692383,4430.897461,4474.743652,4425.641113,4380.769043,4423.974121,4208.077148,4426.922852
1698668551.680748,0.0,4334.615234,4385.256348,4296.538574,4357.94873,4403.077148,4411.282227,4431.666504,4481.666504,4429.102539,4382.94873,4424.743652,4227.563965,4428.461426
1698668551.688556,0.0,4335.0,4391.538574,4290.769043,4362.436035,4404.487305,4412.307617,4431.153809,4482.307617,4430.384766,4381.538574,4421.666504,4204.358887,4430.128418
1698668551.696364,0.0,4337.692383,4380.897461,4297.179688,4361.410156,4406.025879,4412.436035,4430.512695,4478.717773,4428.461426,4379.743652,4423.077148,4193.589844,4427.563965
1698668551.704172,0.0,4334.871582,4383.333496,4297.692383,4359.230957,4406.025879,4414.743652,4430.641113,4475.384766,4431.410156,4380.256348,4425.0,4217.436035,4431.410156
1698668551.711981,0.0,4334.871582,4388.846191,4289.102539,4359.615234,4405.897461,4414.487305,4430.0,4479.102539,4428.846191,4377.692383,4424.487305,4217.179688,4434.487305
1698668551.719789,0.0,4333.974121,4381.666504,4289.615234,4360.769043,4405.641113,4409.871582,4430.384766,4481.282227,4429.102539,4381.410156,4426.282227,4194.487305,4429.487305
1698668551.727597,0.0,4326.025879,4390.897461,4288.717773,4357.563965,4405.641113,4411.666504,4432.05127,4474.871582,4429.230957,4380.128418,4423.974121,4184.102539,4428.589844
1698668551.735405,0.0,4330.512695,4389.358887,4293.461426,4358.077148,4403.974121,4411.922852,4428.333496,4479.230957,4426.282227,4375.256348,4426.282227,4220.256348,4428.333496
1698668551.743214,0.0,4333.717773,4384.487305,4292.436035,4361.922852,4404.615234,4412.563965,4428.974121,4485.0,4430.256348,4379.230957,4424.230957,4231.538574,4431.153809
1698668551.751022,0.0,4327.436035,4393.077148,4289.358887,4357.94873,4404.615234,4413.077148,4434.358887,4475.897461,4428.846191,4378.717773,4420.384766,4195.0,4429.615234
1698668551.75883,0.0,4330.897461,4392.94873,4297.563965,4356.922852,4401.025879,4407.436035,4432.307617,4475.256348,4428.589844,4378.333496,4428.333496,4194.487305,4424.615234
1698668551.766638,0.0,4333.333496,4390.897461,4292.179688,4359.358887,4402.179688,4408.846191,4429.358887,4479.615234,4429.358887,4380.384766,4427.05127,4203.333496,4429.102539
1698668551.774447,0.0,4332.05127,4385.256348,4290.897461,4359.615234,4405.256348,4411.282227,4429.615234,4478.333496,4425.512695,4377.820313,4424.871582,4217.692383,4429.487305
1698668551.782255,0.0,4335.128418,4385.384766,4300.0,4358.077148,4401.794922,4412.436035,4432.307617,4480.769043,4431.666504,4381.153809,4425.769043,4226.410156,4426.282227
1698668551.790063,0.0,4338.461426,4394.102539,4302.563965,4356.794922,4401.153809,4413.333496,4432.692383,4483.333496,4431.666504,4382.307617,4419.358887,4196.922852,4425.512695
1698668551.797871,0.0,4337.94873,4386.922852,4303.717773,4359.102539,4406.538574,4412.05127,4427.692383,4482.307617,4427.307617,4381.282227,4419.871582,4194.871582,4423.589844
1698668551.805679,0.0,4329.743652,4387.692383,4297.179688,4358.333496,4407.05127,4416.282227,4430.897461,4478.333496,4430.384766,4379.871582,4422.436035,4198.846191,4426.410156
1698668551.813488,0.0,4332.05127,4396.410156,4298.974121,4357.94873,4402.820313,4414.743652,4436.153809,4477.179688,4429.230957,4376.794922,4423.589844,4197.692383,4426.025879
1698668551.821296,0.0,4336.153809,4391.153809,4300.384766,4360.128418,4402.179688,4411.153809,4430.128418,4478.846191,4429.615234,4382.05127,4424.871582,4207.05127,4425.0
1698668551.829104,0.0,4331.282227,4386.153809,4291.922852,4360.384766,4402.179688,4415.256348,4426.922852,4479.358887,4428.589844,4381.922852,4421.153809,4201.922852,4429.487305
1698668551.836912,0.0,4333.333496,4384.102539,4296.666504,4361.153809,4401.666504,4413.974121,4429.615234,4481.666504,4426.410156,4379.871582,4423.717773,4214.230957,4428.974121
1698668551.84472,0.0,4330.897461,4391.922852,4293.589844,4357.820313,4404.871582,4412.436035,4431.538574,4478.717773,4429.230957,4382.563965,4427.05127,4215.641113,4428.333496
1698668551.852529,0.0,4328.974121,4393.846191,4291.153809,4357.179688,4405.897461,4413.589844,4433.717773,4469.871582,4429.230957,4381.794922,4426.794922,4197.94873,4428.846191
1698668551.860337,0.0,4331.153809,4387.179688,4297.436035,4358.333496,4404.358887,4412.05127,4431.794922,4470.256348,4430.641113,4381.538574,4425.512695,4201.153809,4427.820313
1698668551.868145,0.0,4329.615234,4389.230957,4292.563965,4355.256348,4405.256348,4412.307617,4430.128418,4476.666504,4428.717773,4378.205078,4420.512695,4201.025879,4428.333496
1698668551.875953,0.0,4336.153809,4384.743652,4299.871582,4357.179688,4402.692383,4410.0,4432.05127,4476.666504,4424.871582,4379.487305,4424.743652,4213.461426,4425.897461
1698668551.883762,0.0,4337.563965,4385.897461,4299.487305,4360.769043,4401.666504,4409.102539,4432.692383,4474.230957,4428.589844,4383.461426,4425.128418,4227.436035,4425.897461
1698668551.89157,0.0,4331.410156,4388.846191,4292.05127,4357.94873,4404.230957,4413.333496,4431.410156,4471.922852,4429.743652,4378.974121,4421.410156,4209.487305,4427.820313
1698668551.899378,0.0,4327.436035,4386.538574,4300.769043,4357.820313,4403.589844,4414.615234,4430.0,4470.641113,4431.538574,4381.282227,4425.897461,4195.128418,4428.077148
1698668551.907186,0.0,4330.128418,4392.563965,4298.461426,4360.512695,4406.025879,4415.897461,4432.179688,4469.615234,4431.922852,4385.128418,4421.153809,4189.615234,4426.153809
1698668551.914994,0.0,4343.589844,4379.487305,4294.358887,4361.025879,4407.692383,4413.461426,4431.282227,4475.897461,4426.794922,4382.179688,4420.0,4211.666504,4422.307617
1698668551.922803,0.0,4340.256348,4376.794922,4292.179688,4357.94873,4401.922852,4410.641113,4427.436035,4479.358887,4428.461426,4380.897461,4424.102539,4232.307617,4426.666504
1698668551.930611,0.0,4325.897461,4392.307617,4288.077148,4355.641113,4401.538574,4412.820313,4428.717773,4471.538574,4428.333496,4377.820313,4422.692383,4210.384766,4428.974121
1698668551.938419,0.0,4330.641113,4386.282227,4291.794922,4360.256348,4405.384766,4410.769043,4429.871582,4476.666504,4428.589844,4376.538574,4425.897461,4199.615234,4424.102539
1698668551.946227,0.0,4333.333496,4388.333496,4294.615234,4361.538574,4404.230957,4412.05127,4429.487305,4479.615234,4429.358887,4378.333496,4425.384766,4193.461426,4424.743652
1698668551.954036,0.0,4336.410156,4390.512695,4304.871582,4358.333496,4402.94873,4415.256348,4430.897461,4472.307617,4423.205078,4377.94873,4424.230957,4210.384766,4423.589844
1698668551.961844,0.0,4337.436035,4384.358887,4301.538574,4360.0,4403.461426,4412.820313,4432.179688,4472.179688,4426.282227,4378.333496,4425.641113,4237.436035,4425.0
1698668551.969652,0.0,4328.974121,4389.358887,4286.025879,4361.025879,4401.794922,4411.666504,4430.897461,4477.692383,4428.974121,4375.641113,4423.077148,4212.94873,4428.717773
1698668551.97746,0.0,4333.077148,4389.743652,4296.538574,4360.384766,4403.333496,4413.077148,4428.974121,4483.461426,4428.589844,4377.820313,4423.205078,4199.358887,4423.589844
1698668551.985268,0.0,4339.743652,4388.846191,4300.512695,4360.0,4407.436035,4418.333496,4430.256348,4479.230957,4433.974121,4382.563965,4419.743652,4208.205078,4425.384766
1698668551.993077,0.0,4338.589844,4384.358887,4291.025879,4361.025879,4404.871582,4416.025879,4428.974121,4477.179688,4433.205078,4379.487305,4419.615234,4214.102539,4432.820313
1698668552.000885,0.0,4334.358887,4385.769043,4296.666504,4361.153809,4403.333496,4412.94873,4427.05127,4482.05127,4430.0,4380.897461,4423.333496,4217.94873,4431.794922
1698668552.008693,0.0,4332.563965,4398.077148,4302.307617,4358.717773,4407.436035,4417.179688,4429.871582,4475.897461,4427.05127,4381.538574,4419.615234,4199.230957,4425.769043
1698668552.016501,0.0,4335.641113,4392.692383,4298.974121,4360.512695,4405.641113,4413.077148,4430.512695,4471.153809,4427.179688,4377.94873,4421.282227,4200.128418,4422.307617
1698668552.02431,0.0,4330.512695,4387.436035,4288.205078,4361.538574,4400.512695,4413.205078,4429.230957,4475.897461,4430.256348,4378.205078,4420.384766,4202.94873,4429.102539
1698668552.032118,0.0,4331.025879,4387.94873,4291.666504,4358.846191,4404.230957,4418.461426,4428.717773,4479.743652,4428.333496,4377.820313,4417.179688,4204.230957,4429.871582
1698668552.039926,0.0,4334.871582,4385.897461,4298.461426,4360.128418,4409.358887,4414.615234,4428.077148,4477.436035,4431.666504,4381.153809,4424.871582,4228.846191,4422.820313
1698668552.047734,0.0,4328.205078,4396.538574,4288.077148,4359.102539,4406.922852,4411.794922,4431.666504,4473.205078,4431.410156,4381.538574,4429.230957,4221.025879,4426.282227
1698668552.055542,0.0,4327.436035,4393.077148,4291.922852,4358.461426,4404.871582,4411.794922,4434.487305,4476.282227,4426.922852,4379.230957,4427.436035,4200.256348,4427.307617
1698668552.063351,0.0,4332.436035,4381.666504,4293.846191,4360.897461,4406.025879,4415.641113,4430.641113,4480.897461,4431.922852,4381.153809,4422.94873,4192.307617,4427.563965
1698668552.071159,0.0,4336.410156,4385.769043,4288.589844,4361.282227,4404.871582,4415.897461,4426.282227,4477.307617,4429.743652,4378.333496,4422.820313,4199.871582,4430.256348
1698668552.078967,0.0,4333.974121,4387.820313,4291.282227,4359.743652,4403.846191,4409.230957,4427.179688,4472.436035,4425.769043,4379.358887,4428.077148,4234.102539,4427.94873
1698668552.086775,0.0,4326.794922,4390.0,4283.461426,4358.717773,4405.384766,4413.077148,4431.538574,4473.077148,4429.358887,4380.128418,4423.717773,4224.743652,4430.384766
1698668552.094583,0.0,4333.717773,4384.871582,4286.922852,4360.256348,4405.128418,4416.922852,4430.384766,4478.205078,4430.0,4377.563965,4423.461426,4205.256348,4430.897461
1698668552.102392,0.0,4337.179688,4385.641113,4297.436035,4358.974121,4405.0,4413.077148,4426.538574,4480.512695,4431.794922,4381.025879,4428.205078,4200.384766,4426.794922
1698668552.1102,0.0,4333.333496,4391.922852,4302.05127,4356.282227,4406.153809,4414.102539,4429.487305,4476.410156,4427.820313,4380.256348,4424.871582,4193.589844,4424.615234
1698668552.118008,0.0,4335.0,4384.358887,4306.666504,4358.461426,4404.487305,4414.230957,4431.025879,4471.666504,4424.487305,4382.94873,4425.0,4220.128418,4426.410156
1698668552.125816,0.0,4331.410156,4388.589844,4290.641113,4358.333496,4404.358887,4411.922852,4430.384766,4470.897461,4430.0,4384.230957,4425.641113,4221.794922,4429.487305
1698668552.133625,0.0,4330.256348,4389.871582,4285.0,4358.205078,4404.743652,4411.922852,4432.692383,4474.615234,4430.0,4378.974121,4426.794922,4198.077148,4426.282227
1698668552.141433,0.0,4333.077148,4388.717773,4300.0,4359.871582,4402.820313,4415.384766,4432.94873,4476.666504,4429.487305,4382.179688,4427.436035,4195.897461,4424.358887
1698668552.149241,0.0,4331.666504,4394.102539,4299.615234,4358.333496,4402.692383,4417.563965,4429.358887,4473.589844,4428.974121,4381.922852,4420.128418,4200.0,4426.025879
1698668552.157049,0.0,4337.692383,4384.487305,4300.384766,4361.538574,4403.717773,4415.256348,4426.410156,4477.820313,4430.256348,4379.358887,4418.461426,4215.0,4424.871582
1698668552.164858,0.0,4337.820313,4386.025879,4299.102539,4362.94873,4405.384766,4417.94873,4431.666504,4480.384766,4431.410156,4380.897461,4420.641113,4221.282227,4426.282227
1698668552.172666,0.0,4332.05127,4392.436035,4298.461426,4358.461426,4405.128418,4416.410156,4435.0,4473.461426,4425.641113,4379.487305,4425.128418,4201.153809,4427.692383
1698668552.180474,0.0,4332.563965,4389.743652,4296.794922,4358.205078,4402.820313,4409.358887,4430.0,4473.717773,4429.743652,4381.794922,4428.333496,4183.333496,4429.743652
1698668552.188282,0.0,4329.487305,4391.794922,4283.589844,4357.820313,4406.025879,4413.077148,4432.94873,4474.615234,4430.641113,4379.871582,4421.282227,4181.666504,4428.846191
1698668552.19609,0.0,4330.256348,4387.94873,4292.307617,4357.94873,4408.717773,4416.538574,4436.153809,4471.410156,4424.102539,4376.794922,4423.589844,4222.820313,4419.871582
1698668552.203899,0.0,4332.563965,4392.94873,4298.333496,4359.615234,4407.05127,4414.615234,4432.436035,4469.230957,4428.717773,4380.384766,4427.179688,4226.538574,4425.0
1698668552.211707,0.0,4333.077148,4395.512695,4292.05127,4359.743652,4406.410156,4412.436035,4431.666504,4471.538574,4430.256348,4379.871582,4423.589844,4191.922852,4430.512695
1698668552.219515,0.0,4335.897461,4383.077148,4297.179688,4360.384766,4405.641113,4412.94873,4431.666504,4478.077148,4429.102539,4381.025879,4423.077148,4213.846191,4423.461426
1698668552.227323,0.0,4333.077148,4387.436035,4292.307617,4359.102539,4404.487305,4417.563965,4429.358887,4476.282227,4430.0,4381.025879,4420.384766,4223.846191,4425.384766
1698668552.235131,0.0,4333.717773,4389.102539,4292.05127,4357.436035,4404.358887,4412.563965,4428.846191,4473.589844,4428.846191,4379.358887,4424.615234,4195.769043,4427.05127
1698668552.24294,0.0,4333.077148,4387.820313,4297.692383,4357.94873,4405.769043,4411.153809,4431.282227,4473.077148,4431.282227,4383.205078,4425.256348,4181.794922,4426.410156
1698668552.250748,0.0,4335.641113,4393.974121,4294.487305,4359.487305,4404.871582,4418.333496,4430.769043,4474.102539,4428.333496,4381.153809,4415.897461,4191.666504,4428.205078
1698668552.258556,0.0,4340.897461,4386.538574,4295.128418,4360.769043,4404.487305,4414.358887,4428.974121,4480.384766,4427.05127,4379.871582,4417.563965,4221.153809,4426.282227
1698668552.266364,0.0,4333.333496,4389.487305,4295.769043,4359.102539,4409.487305,4412.179688,4431.410156,4480.256348,4429.615234,4381.153809,4419.871582,4214.743652,4428.589844
1698668552.274173,0.0,4336.025879,4391.410156,4297.94873,4358.461426,4407.436035,4413.077148,4430.128418,4481.410156,4427.94873,4378.974121,4422.05127,4201.794922,4430.0
1698668552.281981,0.0,4342.820313,4382.692383,4292.820313,4360.384766,4401.025879,4413.077148,4426.666504,4483.461426,4430.512695,4379.615234,4424.102539,4196.922852,4428.333496
1698668552.289789,0.0,4336.794922,4386.153809,4291.666504,4360.0,4402.692383,4416.538574,4430.769043,4477.436035,4429.871582,4378.077148,4419.487305,4189.871582,4425.769043
1698668552.297597,0.0,4333.461426,4386.922852,4303.974121,4360.0,4405.512695,4415.641113,4434.358887,4476.922852,4428.717773,4380.0,4423.205078,4225.128418,4423.077148
1698668552.305406,0.0,4333.974121,4389.871582,4290.512695,4359.358887,4405.512695,4415.512695,4431.410156,4478.205078,4430.512695,4382.05127,4424.102539,4228.461426,4428.205078
1698668552.313214,0.0,4339.615234,4386.153809,4284.871582,4359.230957,4403.717773,4414.358887,4429.743652,4474.743652,4427.436035,4376.410156,4420.897461,4193.205078,4427.820313
1698668552.321022,0.0,4334.615234,4385.512695,4299.743652,4359.230957,4402.307617,4410.897461,4430.512695,4474.102539,4430.641113,4378.589844,4422.436035,4204.871582,4420.897461
1698668552.32883,0.0,4324.871582,4397.307617,4297.563965,4357.820313,4403.077148,4413.846191,4432.436035,4473.205078,4430.512695,4380.512695,4421.282227,4212.94873,4423.333496
1698668552.336638,0.0,4336.538574,4390.0,4300.512695,4358.333496,4403.846191,4416.153809,4431.153809,4475.384766,4426.153809,4380.128418,4422.179688,4194.102539,4425.897461
1698668552.344447,0.0,4340.128418,4388.461426,4302.179688,4359.102539,4404.615234,4417.05127,4428.974121,4475.512695,4429.871582,4383.974121,4422.307617,4176.282227,4426.282227
1698668552.352255,0.0,4331.153809,4390.256348,4298.589844,4359.102539,4405.128418,4416.282227,4431.153809,4471.538574,4430.384766,4383.589844,4423.077148,4202.692383,4424.487305
1698668552.360063,0.0,4330.897461,4383.717773,4300.769043,4359.230957,4404.487305,4413.846191,4430.128418,4473.974121,4430.897461,4383.589844,4425.128418,4238.717773,4422.94873
1698668552.367871,0.0,4333.333496,4390.0,4297.563965,4359.102539,4404.871582,4415.256348,4428.077148,4478.589844,4430.0,4379.871582,4421.410156,4213.461426,4426.025879
1698668552.375679,0.0,4342.563965,4387.436035,4301.153809,4360.128418,4407.563965,4416.410156,4428.333496,4481.153809,4426.922852,4377.94873,4423.205078,4193.717773,4424.358887
1698668552.383488,0.0,4342.179688,4387.820313,4300.897461,4356.410156,4407.307617,4418.846191,4427.820313,4479.615234,4431.666504,4384.102539,4424.743652,4218.846191,4426.410156
1698668552.391296,0.0,4330.769043,4392.94873,4295.641113,4354.743652,4404.230957,4417.179688,4430.0,4473.333496,4430.897461,4382.179688,4422.179688,4207.563965,4428.974121
1698668552.399104,0.0,4329.230957,4385.512695,4295.384766,4360.641113,4403.333496,4408.589844,4430.256348,4473.461426,4430.256348,4380.128418,4425.641113,4185.769043,4426.410156
1698668552.406912,0.0,4329.615234,4388.205078,4286.153809,4357.692383,4403.717773,4409.871582,4428.974121,4472.94873,4432.94873,4381.025879,4424.871582,4182.307617,4426.025879
1698668552.41472,0.0,4333.205078,4387.692383,4291.025879,4354.102539,4403.077148,4414.102539,4430.256348,4470.128418,4429.358887,4381.922852,4423.589844,4226.282227,4423.461426
1698668552.422529,0.0,4334.743652,4387.563965,4303.589844,4360.384766,4404.230957,4415.256348,4433.077148,4471.666504,4431.794922,4386.794922,4422.692383,4239.102539,4425.256348
1698668552.430337,0.0,4333.846191,4391.794922,4302.436035,4360.769043,4407.94873,4416.410156,4432.436035,4472.563965,4433.461426,4382.05127,4419.358887,4198.589844,4424.358887
1698668552.438145,0.0,4336.922852,4382.05127,4301.282227,4357.307617,4406.282227,4415.512695,4429.102539,4473.333496,4432.563965,4378.205078,4425.128418,4204.487305,4419.615234
1698668552.445953,0.0,4336.153809,4388.589844,4298.846191,4357.179688,4404.871582,4418.205078,4429.487305,4473.333496,4432.820313,4380.512695,4425.0,4219.743652,4424.743652
1698668552.453762,0.0,4334.871582,4396.922852,4306.282227,4356.410156,4406.538574,4418.461426,4429.230957,4471.282227,4429.487305,4378.974121,4422.436035,4198.717773,4423.077148
1698668552.46157,0.0,4332.179688,4383.717773,4302.436035,4356.666504,4405.0,4416.153809,4429.487305,4472.94873,4433.589844,4381.922852,4423.974121,4192.692383,4422.94873
1698668552.469378,0.0,4332.563965,4384.358887,4289.358887,4357.563965,4402.436035,4413.461426,4432.436035,4473.974121,4433.589844,4382.436035,4421.153809,4200.0,4429.230957
1698668552.477186,0.0,4336.794922,4388.205078,4298.077148,4357.563965,4403.717773,4408.717773,4431.153809,4473.846191,4430.641113,4380.897461,4423.974121,4226.794922,4425.0
1698668552.484995,0.0,4329.871582,4390.0,4295.769043,4356.410156,4406.794922,4416.153809,4428.974121,4473.333496,4435.384766,4381.282227,4423.974121,4220.512695,4424.871582
1698668552.492803,0.0,4331.538574,4388.717773,4298.461426,4358.717773,4405.0,4421.666504,4427.563965,4473.333496,4434.871582,4378.589844,4420.512695,4202.307617,4427.436035
1698668552.500611,0.0,4338.974121,4382.820313,4309.743652,4360.0,4403.077148,4414.230957,4428.205078,4474.230957,4435.897461,4380.512695,4421.025879,4216.666504,4425.897461
1698668552.508419,0.0,4334.871582,4388.974121,4295.256348,4357.820313,4405.256348,4412.563965,4430.512695,4471.666504,4432.563965,4379.615234,4420.384766,4211.410156,4430.769043
1698668552.516227,0.0,4335.897461,4385.641113,4290.0,4361.025879,4404.871582,4414.615234,4428.461426,4474.615234,4427.436035,4378.077148,4424.871582,4210.0,4430.897461
1698668552.524036,0.0,4337.307617,4382.94873,4293.846191,4360.384766,4402.94873,4416.153809,4427.563965,4480.769043,4433.846191,4382.436035,4425.641113,4208.974121,4430.512695
1698668552.531844,0.0,4336.922852,4385.256348,4294.358887,4356.538574,4402.05127,4414.871582,4429.487305,4479.871582,4434.743652,4382.307617,4422.179688,4205.641113,4432.05127
1698668552.539652,0.0,4336.410156,4382.05127,4297.307617,4359.102539,4402.179688,4411.666504,4428.846191,4475.512695,4432.94873,4384.487305,4424.743652,4227.692383,4427.94873
1698668552.54746,0.0,4332.692383,4389.871582,4293.461426,4358.846191,4403.333496,4417.05127,4430.641113,4472.436035,4432.179688,4382.692383,4421.153809,4214.615234,4427.05127
1698668552.555268,0.0,4338.974121,4386.922852,4299.743652,4358.205078,4404.102539,4416.666504,4430.897461,4474.487305,4429.358887,4377.820313,4422.94873,4194.743652,4426.922852
1698668552.563077,0.0,4336.153809,4388.205078,4304.487305,4360.256348,4404.358887,4413.077148,4427.307617,4472.692383,4434.743652,4383.974121,4427.436035,4197.692383,4426.153809
1698668552.570885,0.0,4325.897461,4397.563965,4298.205078,4359.230957,4403.974121,4417.05127,4428.077148,4467.692383,4435.384766,4384.358887,4424.615234,4200.256348,4425.128418
1698668552.578693,0.0,4330.0,4392.179688,4302.307617,4359.871582,4403.974121,4415.897461,4430.0,4473.589844,4430.512695,4383.589844,4425.897461,4216.666504,4422.563965
1698668552.586501,0.0,4332.563965,4390.897461,4298.333496,4359.871582,4405.769043,4415.0,4432.05127,4477.05127,4429.871582,4382.94873,4422.436035,4208.205078,4424.102539
1698668552.594309,0.0,4334.871582,4387.436035,4296.794922,4358.974121,4406.538574,4414.615234,4431.282227,4473.461426,4431.666504,4377.820313,4423.974121,4201.410156,4424.358887
1698668552.602118,0.0,4336.025879,4385.0,4295.256348,4359.487305,4405.384766,4413.077148,4426.538574,4475.384766,4437.179688,4381.410156,4428.205078,4212.307617,4427.563965
1698668552.609926,0.0,4334.871582,4385.384766,4289.743652,4358.077148,4403.974121,4416.922852,4427.94873,4478.333496,4432.05127,4381.410156,4421.153809,4204.743652,4427.307617
1698668552.617734,0.0,4335.128418,4383.077148,4296.410156,4357.436035,4402.307617,4413.077148,4430.769043,4477.563965,4427.179688,4381.538574,4423.461426,4217.820313,4422.05127
1698668552.625542,0.0,4325.256348,4394.230957,4286.666504,4357.563965,4402.307617,4410.384766,4430.897461,4473.461426,4432.563965,4382.94873,4426.666504,4217.05127,4427.436035
1698668552.633351,0.0,4326.538574,4390.512695,4286.153809,4359.743652,4404.230957,4415.0,4430.512695,4475.256348,4431.410156,4378.974121,4423.974121,4202.05127,4427.692383
1698668552.641159,0.0,4335.0,4383.589844,4302.563965,4360.641113,4406.666504,4417.692383,4430.384766,4474.487305,4432.436035,4382.563965,4424.743652,4220.384766,4422.05127
1698668552.648967,0.0,4334.743652,4394.102539,4297.94873,4357.307617,4407.05127,4416.794922,4431.538574,4469.102539,4433.461426,4385.897461,4423.333496,4214.230957,4425.512695
1698668552.656775,0.0,4338.461426,4387.563965,4295.897461,4359.871582,4403.717773,4411.666504,4430.641113,4475.128418,4431.794922,4384.102539,4425.641113,4196.922852,4427.563965
1698668552.664584,0.0,4334.102539,4387.692383,4295.128418,4362.563965,4403.717773,4411.922852,4430.384766,4476.025879,4433.461426,4382.820313,4426.410156,4192.692383,4425.897461
1698668552.672392,0.0,4331.666504,4395.769043,4296.410156,4358.846191,4406.025879,4413.717773,4430.641113,4469.871582,4430.0,4381.794922,4424.615234,4211.538574,4423.461426
1698668552.6802,0.0,4338.589844,4389.102539,4303.205078,4357.692383,4405.0,4413.846191,4430.512695,4471.922852,4433.077148,4385.256348,4425.769043,4232.05127,4424.871582
1698668552.688008,0.0,4335.897461,4389.487305,4292.179688,4359.102539,4404.871582,4414.487305,4430.384766,4476.538574,4436.922852,4383.333496,4422.820313,4202.179688,4429.102539
1698668552.695816,0.0,4330.641113,4387.436035,4285.0,4359.615234,4403.589844,4407.307617,4429.102539,4480.128418,4430.769043,4379.487305,4424.743652,4201.025879,4427.307617
1698668552.703625,0.0,4326.922852,4390.641113,4292.820313,4357.820313,4402.94873,4410.641113,4429.743652,4477.820313,4431.025879,4382.563965,4423.461426,4213.077148,4426.666504
1698668552.711433,0.0,4334.102539,4394.743652,4302.436035,4357.94873,4405.256348,4421.282227,4430.384766,4472.307617,4433.589844,4381.538574,4420.0,4194.358887,4424.102539
1698668552.719241,0.0,4345.512695,4381.282227,4303.846191,4361.538574,4405.512695,4416.153809,4428.077148,4475.512695,4436.794922,4383.461426,4423.333496,4216.794922,4420.641113
1698668552.727049,0.0,4337.179688,4387.05127,4294.743652,4360.0,4405.897461,4410.0,4428.461426,4474.102539,4436.410156,4384.871582,4419.743652,4228.846191,4428.333496
1698668552.734857,0.0,4331.922852,4392.05127,4298.846191,4359.230957,4405.512695,4410.897461,4430.256348,4466.922852,4430.641113,4381.282227,4423.717773,4204.102539,4429.487305
1698668552.742666,0.0,4336.153809,4384.615234,4302.179688,4362.179688,4402.436035,4415.769043,4428.974121,4473.333496,4431.922852,4385.384766,4426.922852,4184.230957,4424.743652
1698668552.750474,0.0,4336.922852,4389.487305,4299.487305,4360.512695,4402.820313,4417.563965,4429.871582,4480.128418,4432.307617,4386.153809,4419.358887,4193.974121,4425.384766
1698668552.758282,0.0,4337.94873,4389.358887,4301.922852,4359.358887,4406.025879,4410.769043,4428.717773,4474.102539,4433.846191,4384.358887,4423.333496,4230.769043,4424.230957
1698668552.76609,0.0,4333.974121,4390.897461,4293.717773,4358.846191,4406.410156,4412.563965,4427.563965,4468.974121,4437.436035,4383.205078,4424.102539,4224.615234,4425.769043
1698668552.773898,0.0,4334.230957,4388.846191,4298.589844,4359.487305,4404.487305,4419.487305,4429.615234,4475.897461,4435.897461,4380.641113,4420.0,4200.512695,4425.641113
1698668552.781707,0.0,4336.538574,4385.769043,4299.487305,4360.769043,4404.743652,4416.794922,4428.589844,4481.025879,4436.922852,4383.205078,4423.846191,4208.205078,4426.922852
1698668552.789515,0.0,4332.436035,4388.589844,4281.922852,4358.333496,4404.871582,4410.769043,4427.436035,4473.589844,4435.0,4382.563965,4426.538574,4210.256348,4431.282227
1698668552.797323,0.0,4332.436035,4381.282227,4289.487305,4357.692383,4402.563965,4411.025879,4427.820313,4473.333496,4433.974121,4385.641113,4425.769043,4217.563965,4426.666504
1698668552.805131,0.0,4331.922852,4387.563965,4304.230957,4358.077148,4404.230957,4418.333496,4430.256348,4475.512695,4437.179688,4389.358887,4420.641113,4211.025879,4424.230957
1698668552.81294,0.0,4333.589844,4392.563965,4302.179688,4357.692383,4405.384766,4415.384766,4430.128418,4471.794922,4432.94873,4382.692383,4423.717773,4206.922852,4425.769043
1698668552.820748,0.0,4333.846191,4387.436035,4294.230957,4358.974121,4404.230957,4409.487305,4426.153809,4473.974121,4435.384766,4382.94873,4430.128418,4215.384766,4427.179688
1698668552.828556,0.0,4329.743652,4395.512695,4293.589844,4359.358887,4406.025879,4416.282227,4429.230957,4475.256348,4438.205078,4385.384766,4423.589844,4201.410156,4427.820313
1698668552.836364,0.0,4336.282227,4394.871582,4308.846191,4359.743652,4405.256348,4418.333496,4431.538574,4474.615234,4434.358887,4381.794922,4420.641113,4217.05127,4422.692383
1698668552.844173,0.0,4335.512695,4389.358887,4301.794922,4358.077148,4404.743652,4415.897461,4429.743652,4472.692383,4436.025879,4383.461426,4420.897461,4232.692383,4424.743652
1698668552.851981,0.0,4330.897461,4389.358887,4290.897461,4356.666504,4407.05127,4413.846191,4428.974121,4471.794922,4435.128418,4385.256348,4422.820313,4202.436035,4425.769043
1698668552.859789,0.0,4335.0,4389.871582,4302.05127,4359.615234,4406.666504,4411.922852,4428.589844,4474.743652,4433.461426,4384.743652,4427.563965,4192.05127,4421.538574
1698668552.867597,0.0,4331.282227,4393.205078,4293.205078,4359.102539,4405.641113,4415.769043,4430.0,4472.692383,4434.743652,4381.922852,4422.179688,4197.05127,4425.256348
1698668552.875405,0.0,4332.692383,4385.769043,4290.0,4358.974121,4406.410156,4413.205078,4430.256348,4471.922852,4435.384766,4384.230957,4422.563965,4220.512695,4425.384766
1698668552.883214,0.0,4338.846191,4385.0,4298.205078,4361.666504,4408.589844,4411.410156,4427.563965,4477.05127,4438.077148,4389.230957,4425.0,4229.102539,4426.025879
1698668552.891022,0.0,4340.128418,4389.230957,4298.077148,4361.153809,4408.461426,4416.794922,4427.436035,4478.333496,4436.153809,4383.077148,4421.153809,4204.871582,4428.589844
1698668552.89883,0.0,4341.282227,4383.589844,4305.512695,4359.358887,4406.282227,4417.05127,4429.102539,4476.025879,4435.897461,4382.307617,4423.205078,4206.282227,4426.282227
1698668552.906638,0.0,4340.0,4392.563965,4303.077148,4357.692383,4408.589844,4418.846191,4429.358887,4476.922852,4437.563965,4383.333496,4421.025879,4206.922852,4427.179688
1698668552.914446,0.0,4346.025879,4388.846191,4300.384766,4359.487305,4408.461426,4417.05127,4425.897461,4481.794922,4434.615234,4378.717773,4422.179688,4206.153809,4427.436035
1698668552.922255,0.0,4342.692383,4380.769043,4297.307617,4359.615234,4403.461426,4414.743652,4425.128418,4482.692383,4438.205078,4384.871582,4425.128418,4218.589844,4428.846191
1698668552.930063,0.0,4333.461426,4393.461426,4291.922852,4357.179688,4403.589844,4416.666504,4430.256348,4480.0,4438.205078,4387.820313,4421.025879,4209.358887,4429.358887
1698668552.937871,0.0,4338.333496,4390.384766,4303.077148,4359.358887,4406.922852,4411.922852,4430.769043,4479.358887,4435.641113,4386.410156,4422.563965,4210.128418,4422.307617
1698668552.945679,0.0,4337.307617,4390.897461,4301.666504,4357.94873,4405.256348,4412.307617,4427.179688,4474.871582,4436.410156,4386.282227,4420.641113,4206.794922,4423.717773
1698668552.953488,0.0,4335.641113,4391.282227,4293.589844,4355.769043,4401.666504,4417.307617,4425.769043,4474.871582,4431.922852,4380.897461,4417.94873,4205.0,4427.692383
1698668552.961296,0.0,4336.282227,4386.282227,4296.410156,4359.102539,4402.820313,4415.769043,4428.461426,4476.025879,4435.256348,4383.461426,4423.333496,4224.743652,4426.794922
1698668552.969104,0.0,4334.358887,4396.025879,4301.666504,4359.102539,4406.794922,4414.743652,4432.179688,4467.692383,4439.102539,4387.94873,4423.205078,4213.589844,4425.128418
1698668552.976912,0.0,4337.05127,4389.615234,4306.153809,4359.230957,4407.820313,4414.358887,4428.974121,4468.077148,4436.538574,4387.179688,4421.025879,4199.358887,4423.974121
1698668552.984721,0.0,4336.794922,4386.025879,4295.769043,4359.743652,4405.384766,4415.128418,4427.820313,4474.615234,4436.282227,4388.205078,4420.256348,4192.692383,4430.769043
1698668552.992529,0.0,4338.077148,4392.05127,4293.846191,4359.230957,4403.205078,4414.230957,4431.282227,4472.307617,4435.0,4386.153809,4422.692383,4203.461426,4428.589844
1698668553.000337,0.0,4337.820313,4386.410156,4302.820313,4359.358887,4403.974121,4414.102539,4430.128418,4473.461426,4438.589844,4388.717773,4424.615234,4233.333496,4419.615234
1698668553.008145,0.0,4330.384766,4386.410156,4295.0,4357.307617,4404.358887,4415.512695,4426.922852,4477.820313,4438.205078,4388.589844,4418.589844,4213.974121,4424.743652
1698668553.015953,0.0,4331.922852,4385.128418,4297.563965,4357.820313,4402.94873,4409.487305,4426.538574,4478.077148,4432.563965,4383.974121,4421.410156,4200.512695,4426.666504
1698668553.023762,0.0,4333.333496,4389.487305,4299.358887,4360.128418,4403.974121,4410.641113,4428.974121,4475.641113,4436.538574,4385.128418,4423.717773,4203.589844,4423.974121
1698668553.03157,0.0,4332.307617,4394.743652,4296.922852,4356.666504,4406.282227,4418.333496,4430.128418,4472.820313,4435.769043,4383.333496,4418.205078,4196.282227,4424.487305
1698668553.039378,0.0,4335.769043,4391.922852,4307.05127,4355.512695,4404.230957,4415.769043,4428.974121,4475.384766,4435.384766,4383.717773,4419.102539,4223.461426,4425.256348
1698668553.047186,0.0,4333.589844,4394.102539,4300.897461,4358.974121,4404.358887,4417.179688,4430.897461,4475.384766,4436.922852,4382.692383,4417.05127,4225.641113,4429.487305
1698668553.054994,0.0,4336.922852,4383.974121,4297.307617,4361.410156,4406.282227,4418.717773,4430.0,4475.897461,4434.102539,4382.436035,4420.641113,4204.102539,4427.820313
1698668553.062803,0.0,4334.102539,4385.128418,4300.512695,4358.333496,4405.128418,4414.487305,4428.717773,4476.794922,4439.615234,4389.230957,4425.512695,4190.0,4425.384766
1698668553.070611,0.0,4325.769043,4401.666504,4299.615234,4355.769043,4404.615234,4414.358887,4432.307617,4469.358887,4436.794922,4384.102539,4423.461426,4194.487305,4425.641113
1698668553.078419,0.0,4333.846191,4393.461426,4301.282227,4361.282227,4405.512695,4413.589844,4431.025879,4470.769043,4434.487305,4382.05127,4427.179688,4236.538574,4424.743652
