type,marker_value,duration,timestamp
phase_Meditating_cube,recording,8.003424,1698668142.280213
Timestamp,EEG.AF3,EEG.F7,EEG.F3,EEG.FC5,EEG.T7,EEG.P7,EEG.O1,EEG.O2,EEG.P8,EEG.T8,EEG.FC6,EEG.F4,EEG.F8,EEG.AF4
1698668142.280213,0.0,4309.487305,4367.179688,4292.307617,4344.743652,4387.820313,4399.102539,4410.769043,4459.615234,4415.0,4372.179688,4411.666504,4166.538574,4411.025879
1698668142.288021,0.0,4309.743652,4369.615234,4286.153809,4343.974121,4390.256348,4398.974121,4413.461426,4463.077148,4420.384766,4367.94873,4406.025879,4157.05127,4410.256348
1698668142.295829,0.0,4310.897461,4373.846191,4293.589844,4351.025879,4389.871582,4395.769043,4409.871582,4458.974121,4418.461426,4363.974121,4410.641113,4161.666504,4412.307617
1698668142.303638,0.0,4307.692383,4367.05127,4287.307617,4345.769043,4388.205078,4398.461426,4416.153809,4465.384766,4417.692383,4369.230957,4407.563965,4163.205078,4403.974121
1698668142.311446,0.0,4310.769043,4372.05127,4288.974121,4345.769043,4387.820313,4398.846191,4416.538574,4465.769043,4418.333496,4370.256348,4407.05127,4161.538574,4408.077148
1698668142.319254,0.0,4312.820313,4371.410156,4293.717773,4347.692383,4388.333496,4396.410156,4411.025879,4461.410156,4419.743652,4366.282227,4411.153809,4168.846191,4411.025879
1698668142.327062,0.0,4310.256348,4369.230957,4290.384766,4342.94873,4390.384766,4396.538574,4411.025879,4462.692383,4424.615234,4368.077148,4411.153809,4159.487305,4409.871582
1698668142.33487,0.0,4308.589844,4368.974121,4291.153809,4343.461426,4390.256348,4394.487305,4411.794922,4465.897461,4425.641113,4370.769043,4412.436035,4162.436035,4407.307617
1698668142.342679,0.0,4307.692383,4371.025879,4287.563965,4345.256348,4389.230957,4393.077148,4412.563965,4464.487305,4421.666504,4370.897461,4409.102539,4164.230957,4404.871582
1698668142.350487,0.0,4309.487305,4372.563965,4288.205078,4345.769043,4389.230957,4394.871582,4415.0,4464.102539,4426.538574,4373.461426,4408.846191,4159.230957,4405.897461
1698668142.358295,0.0,4306.794922,4370.384766,4293.461426,4344.871582,4389.102539,4397.563965,4415.128418,4466.666504,4431.025879,4376.025879,4411.282227,4164.230957,4403.717773
1698668142.366103,0.0,4305.0,4370.256348,4290.641113,4342.820313,4389.871582,4396.922852,4412.307617,4466.922852,4424.743652,4373.333496,4409.487305,4160.128418,4403.333496
1698668142.373912,0.0,4310.512695,4368.846191,4288.717773,4342.820313,4388.461426,4394.102539,4410.512695,4467.563965,4422.05127,4369.358887,4409.743652,4163.846191,4404.743652
1698668142.38172,0.0,4309.615234,4371.666504,4290.256348,4341.794922,4388.461426,4397.563965,4412.436035,4468.717773,4427.05127,4370.897461,4405.897461,4163.589844,4403.333496
1698668142.389528,0.0,4307.94873,4372.436035,4290.0,4340.897461,4389.487305,4400.384766,4412.436035,4473.717773,4424.743652,4369.743652,4404.615234,4155.512695,4402.692383
1698668142.397336,0.0,4310.256348,4369.102539,4285.512695,4342.692383,4388.589844,4398.077148,4411.794922,4474.102539,4422.307617,4368.333496,4409.615234,4161.794922,4402.436035
1698668142.405145,0.0,4308.589844,4371.794922,4282.179688,4343.589844,4390.0,4399.743652,4413.846191,4468.077148,4425.769043,4370.0,4410.769043,4159.487305,4400.641113
1698668142.412953,0.0,4308.461426,4373.077148,4289.230957,4343.461426,4392.820313,4402.05127,4411.794922,4471.666504,4423.461426,4367.05127,4409.230957,4156.282227,4399.358887
1698668142.420761,0.0,4308.846191,4370.384766,4292.05127,4345.0,4392.05127,4398.205078,4410.384766,4474.743652,4423.333496,4368.461426,4406.538574,4162.563965,4402.307617
1698668142.428569,0.0,4307.307617,4370.512695,4289.871582,4345.641113,4389.615234,4396.025879,4413.846191,4469.871582,4425.769043,4368.717773,4406.410156,4159.230957,4404.102539
1698668142.436377,0.0,4304.102539,4373.077148,4288.717773,4346.282227,4388.333496,4395.512695,4414.358887,4468.589844,4422.820313,4365.512695,4408.717773,4156.794922,4399.743652
1698668142.444186,0.0,4301.794922,4371.922852,4283.589844,4343.461426,4386.794922,4397.692383,4413.077148,4472.563965,4419.743652,4365.384766,4406.282227,4162.179688,4396.794922
1698668142.451994,0.0,4307.179688,4372.307617,4288.846191,4341.538574,4386.538574,4401.282227,4412.436035,4471.538574,4419.487305,4363.846191,4403.846191,4160.384766,4397.179688
1698668142.459802,0.0,4307.94873,4377.179688,4293.205078,4344.102539,4388.461426,4400.128418,4414.358887,4466.922852,4423.461426,4366.025879,4403.077148,4158.333496,4397.179688
1698668142.46761,0.0,4307.820313,4376.282227,4286.410156,4343.589844,4388.846191,4397.436035,4415.384766,4467.94873,4419.358887,4366.666504,4403.077148,4164.102539,4396.282227
1698668142.475418,0.0,4312.179688,4372.820313,4285.256348,4342.692383,4388.333496,4396.153809,4410.384766,4471.025879,4413.589844,4365.0,4406.282227,4166.153809,4397.179688
1698668142.483227,0.0,4306.794922,4375.256348,4284.743652,4342.94873,4391.025879,4398.461426,4410.128418,4470.128418,4418.461426,4366.666504,4403.846191,4159.487305,4398.205078
1698668142.491035,0.0,4303.461426,4375.384766,4286.538574,4342.563965,4393.077148,4398.461426,4412.820313,4470.128418,4420.256348,4366.794922,4401.282227,4152.692383,4397.820313
1698668142.498843,0.0,4307.563965,4370.641113,4286.153809,4342.436035,4389.743652,4396.538574,4411.794922,4472.94873,4416.538574,4366.025879,4402.94873,4164.615234,4398.974121
1698668142.506651,0.0,4307.179688,4374.615234,4281.025879,4340.769043,4389.487305,4399.358887,4412.307617,4470.641113,4417.563965,4363.974121,4401.025879,4177.692383,4398.461426
1698668142.514459,0.0,4306.538574,4377.05127,4286.025879,4342.436035,4390.769043,4398.846191,4411.922852,4467.05127,4419.358887,4363.717773,4403.205078,4172.563965,4397.94873
1698668142.522268,0.0,4307.307617,4373.333496,4286.282227,4344.743652,4386.794922,4398.205078,4413.077148,4469.230957,4417.563965,4365.128418,4405.384766,4161.794922,4401.410156
1698668142.530076,0.0,4309.615234,4373.461426,4283.846191,4345.0,4385.0,4399.487305,4415.769043,4468.974121,4415.384766,4363.846191,4400.897461,4156.538574,4401.666504
1698668142.537884,0.0,4306.794922,4376.025879,4288.589844,4345.897461,4388.461426,4396.922852,4412.692383,4465.897461,4416.922852,4363.205078,4397.307617,4163.461426,4399.871582
1698668142.545692,0.0,4303.461426,4374.358887,4288.205078,4343.717773,4388.846191,4397.563965,4412.05127,4466.538574,4415.897461,4361.282227,4399.487305,4167.820313,4398.589844
1698668142.553501,0.0,4310.0,4370.128418,4288.974121,4342.820313,4387.94873,4400.256348,4416.410156,4466.922852,4414.358887,4358.589844,4404.487305,4161.025879,4400.0
1698668142.561309,0.0,4308.077148,4375.128418,4288.589844,4342.563965,4390.641113,4400.641113,4417.05127,4465.512695,4416.282227,4360.256348,4400.641113,4161.538574,4402.94873
1698668142.569117,0.0,4303.717773,4378.205078,4286.410156,4342.307617,4389.358887,4399.102539,4415.256348,4464.743652,4414.358887,4361.025879,4396.025879,4163.461426,4398.974121
1698668142.576925,0.0,4304.871582,4374.102539,4288.717773,4345.641113,4386.282227,4396.282227,4415.769043,4463.205078,4414.102539,4360.128418,4401.410156,4166.922852,4398.077148
1698668142.584734,0.0,4303.717773,4375.897461,4286.794922,4344.230957,4387.820313,4399.487305,4416.922852,4463.589844,4415.0,4357.692383,4403.589844,4171.538574,4400.769043
1698668142.592542,0.0,4306.794922,4377.307617,4286.666504,4341.666504,4389.871582,4403.461426,4413.974121,4464.871582,4412.307617,4357.692383,4401.410156,4170.384766,4399.487305
1698668142.60035,0.0,4307.05127,4377.94873,4285.0,4344.102539,4389.871582,4400.512695,4412.820313,4465.0,4413.974121,4360.128418,4400.256348,4167.692383,4402.820313
1698668142.608158,0.0,4301.922852,4377.563965,4279.487305,4343.589844,4389.615234,4399.358887,4416.282227,4465.256348,4414.230957,4357.692383,4399.743652,4165.256348,4401.282227
1698668142.615966,0.0,4302.05127,4377.94873,4285.641113,4345.0,4388.205078,4402.179688,4413.717773,4462.692383,4411.922852,4357.94873,4402.820313,4166.282227,4399.615234
1698668142.623775,0.0,4305.769043,4378.589844,4289.743652,4347.179688,4386.538574,4401.922852,4412.563965,4462.05127,4410.641113,4360.256348,4400.769043,4166.025879,4405.0
1698668142.631583,0.0,4308.717773,4375.256348,4285.384766,4343.974121,4388.205078,4396.025879,4414.615234,4462.05127,4410.256348,4359.358887,4399.102539,4164.102539,4402.436035
1698668142.639391,0.0,4304.743652,4377.05127,4284.487305,4343.077148,4392.179688,4396.538574,4414.871582,4456.794922,4409.743652,4358.846191,4403.974121,4170.641113,4401.153809
1698668142.647199,0.0,4303.205078,4378.589844,4284.871582,4345.256348,4392.05127,4401.794922,4417.179688,4458.974121,4408.846191,4357.05127,4403.717773,4172.94873,4404.743652
1698668142.655007,0.0,4307.436035,4377.436035,4286.922852,4346.538574,4387.94873,4400.0,4414.230957,4464.487305,4409.743652,4356.025879,4399.615234,4170.128418,4404.743652
1698668142.662816,0.0,4302.692383,4377.563965,4286.025879,4344.743652,4387.436035,4399.487305,4411.794922,4460.641113,4408.205078,4355.384766,4400.0,4167.94873,4404.743652
1698668142.670624,0.0,4302.179688,4376.538574,4285.897461,4344.230957,4390.769043,4400.512695,4414.230957,4454.743652,4405.128418,4356.153809,4402.820313,4166.794922,4402.307617
1698668142.678432,0.0,4307.05127,4380.256348,4286.410156,4347.05127,4391.282227,4399.230957,4413.333496,4452.692383,4405.256348,4356.282227,4401.282227,4171.538574,4404.487305
1698668142.68624,0.0,4304.230957,4377.820313,4280.512695,4345.641113,4390.128418,4399.230957,4415.0,4457.94873,4408.461426,4354.102539,4398.205078,4172.94873,4407.307617
1698668142.694049,0.0,4302.94873,4368.846191,4284.487305,4347.307617,4388.333496,4398.333496,4416.153809,4461.410156,4409.615234,4355.128418,4401.794922,4167.94873,4404.230957
1698668142.701857,0.0,4302.94873,4372.563965,4288.717773,4349.487305,4386.282227,4398.846191,4413.717773,4457.05127,4406.153809,4354.743652,4404.871582,4169.102539,4404.871582
1698668142.709665,0.0,4304.358887,4378.717773,4283.461426,4344.871582,4387.05127,4400.0,4413.974121,4458.589844,4406.538574,4352.820313,4401.025879,4175.128418,4405.512695
1698668142.717473,0.0,4304.358887,4375.512695,4284.871582,4344.743652,4390.384766,4397.179688,4414.743652,4459.358887,4409.230957,4354.487305,4401.153809,4174.615234,4405.128418
1698668142.725281,0.0,4300.0,4375.384766,4285.769043,4346.153809,4391.282227,4397.820313,4413.205078,4454.487305,4405.641113,4354.871582,4401.666504,4160.769043,4405.0
1698668142.73309,0.0,4302.820313,4378.974121,4285.256348,4344.230957,4390.256348,4398.846191,4409.871582,4455.256348,4404.487305,4357.05127,4402.179688,4157.307617,4404.230957
1698668142.740898,0.0,4301.666504,4378.205078,4283.974121,4343.717773,4389.358887,4397.820313,4411.410156,4456.922852,4408.333496,4357.436035,4403.205078,4174.871582,4407.179688
1698668142.748706,0.0,4299.743652,4374.487305,4280.769043,4344.487305,4388.589844,4399.358887,4416.153809,4457.436035,4408.461426,4351.666504,4401.794922,4178.205078,4408.589844
1698668142.756514,0.0,4304.615234,4375.512695,4282.563965,4347.436035,4388.589844,4399.871582,4415.0,4457.436035,4406.153809,4351.666504,4405.897461,4169.102539,4404.358887
1698668142.764323,0.0,4305.128418,4379.871582,4279.615234,4346.282227,4390.128418,4398.333496,4413.461426,4456.922852,4403.589844,4352.307617,4405.897461,4165.769043,4405.769043
1698668142.772131,0.0,4305.512695,4374.871582,4279.615234,4345.128418,4390.256348,4397.307617,4412.94873,4455.256348,4403.974121,4350.641113,4402.94873,4172.563965,4412.307617
1698668142.779939,0.0,4306.282227,4371.794922,4286.410156,4346.666504,4388.077148,4397.179688,4412.307617,4454.102539,4404.487305,4352.179688,4405.384766,4173.461426,4409.358887
1698668142.787747,0.0,4309.358887,4377.436035,4288.077148,4345.128418,4388.461426,4395.769043,4413.974121,4454.615234,4401.666504,4353.846191,4405.512695,4160.384766,4406.922852
1698668142.795555,0.0,4309.871582,4378.589844,4286.538574,4346.025879,4389.743652,4394.871582,4412.307617,4453.589844,4403.333496,4355.0,4404.230957,4162.820313,4412.436035
1698668142.803364,0.0,4304.102539,4377.94873,4280.512695,4346.410156,4389.102539,4399.358887,4412.179688,4452.94873,4406.410156,4353.717773,4401.794922,4179.230957,4413.077148
1698668142.811172,0.0,4306.410156,4373.333496,4282.05127,4343.846191,4388.077148,4399.358887,4416.282227,4455.641113,4405.512695,4353.205078,4400.897461,4183.589844,4410.897461
1698668142.81898,0.0,4311.025879,4371.666504,4286.794922,4344.230957,4389.230957,4395.641113,4417.307617,4457.820313,4405.384766,4356.025879,4402.179688,4173.589844,4410.897461
1698668142.826788,0.0,4308.974121,4375.256348,4281.538574,4346.666504,4390.769043,4397.307617,4414.743652,4453.205078,4405.128418,4355.0,4404.358887,4154.743652,4412.307617
1698668142.834597,0.0,4303.846191,4373.205078,4283.461426,4345.384766,4391.666504,4397.820313,4411.282227,4449.358887,4403.974121,4354.358887,4407.436035,4156.794922,4414.102539
1698668142.842405,0.0,4297.820313,4374.487305,4284.615234,4341.922852,4389.358887,4398.461426,4411.794922,4451.025879,4405.0,4356.794922,4405.769043,4177.179688,4413.077148
1698668142.850213,0.0,4304.358887,4377.436035,4282.436035,4343.589844,4386.794922,4397.307617,4412.05127,4453.846191,4404.230957,4355.769043,4405.128418,4192.307617,4411.410156
1698668142.858021,0.0,4314.102539,4371.666504,4283.205078,4347.05127,4390.128418,4392.692383,4410.641113,4455.769043,4405.0,4355.769043,4406.666504,4180.512695,4413.589844
1698668142.865829,0.0,4308.461426,4367.94873,4284.230957,4344.871582,4392.563965,4395.384766,4413.333496,4452.179688,4405.641113,4355.897461,4404.102539,4146.153809,4413.846191
1698668142.873638,0.0,4302.179688,4373.717773,4290.641113,4344.615234,4390.512695,4397.692383,4412.692383,4450.512695,4404.102539,4354.615234,4406.666504,4147.563965,4411.666504
1698668142.881446,0.0,4302.563965,4375.512695,4287.820313,4344.358887,4389.871582,4395.384766,4411.025879,4456.538574,4408.205078,4355.641113,4408.589844,4183.846191,4412.05127
1698668142.889254,0.0,4312.179688,4371.794922,4285.512695,4344.358887,4389.358887,4395.512695,4411.282227,4455.256348,4408.717773,4355.256348,4405.256348,4192.94873,4413.205078
1698668142.897062,0.0,4315.512695,4373.333496,4292.179688,4347.179688,4389.358887,4396.922852,4410.256348,4448.589844,4406.282227,4356.794922,4407.307617,4174.230957,4413.077148
1698668142.90487,0.0,4303.333496,4377.179688,4288.974121,4344.230957,4392.692383,4397.820313,4411.282227,4450.897461,4407.692383,4360.384766,4407.820313,4159.487305,4413.846191
1698668142.912679,0.0,4306.794922,4373.333496,4289.743652,4344.871582,4391.794922,4396.153809,4413.077148,4454.615234,4407.307617,4359.743652,4406.282227,4166.282227,4416.794922
1698668142.920487,0.0,4314.615234,4367.563965,4289.615234,4348.333496,4387.820313,4395.128418,4415.256348,4454.615234,4408.846191,4358.974121,4404.358887,4175.769043,4416.538574
1698668142.928295,0.0,4309.743652,4369.871582,4283.717773,4346.153809,4389.743652,4395.384766,4415.256348,4454.230957,4406.538574,4357.05127,4402.436035,4175.128418,4415.512695
1698668142.936103,0.0,4305.0,4373.589844,4288.461426,4344.487305,4390.0,4393.333496,4412.820313,4451.153809,4404.871582,4358.974121,4406.922852,4175.384766,4417.05127
1698668142.943912,0.0,4303.461426,4374.358887,4287.563965,4343.333496,4388.205078,4394.102539,4414.487305,4450.384766,4408.589844,4361.922852,4409.102539,4170.256348,4415.769043
1698668142.95172,0.0,4310.512695,4374.102539,4284.615234,4344.102539,4389.615234,4395.769043,4413.846191,4453.589844,4406.025879,4361.410156,4408.589844,4170.128418,4413.846191
1698668142.959528,0.0,4314.871582,4375.897461,4289.487305,4346.410156,4392.307617,4395.897461,4409.743652,4454.615234,4406.666504,4363.974121,4409.102539,4175.128418,4413.717773
1698668142.967336,0.0,4308.333496,4373.974121,4287.179688,4345.897461,4391.666504,4394.487305,4410.769043,4453.589844,4409.230957,4363.333496,4408.205078,4168.589844,4417.179688
1698668142.975145,0.0,4303.461426,4369.102539,4285.769043,4346.153809,4388.846191,4391.922852,4412.307617,4454.615234,4409.487305,4360.384766,4411.025879,4174.102539,4417.820313
1698668142.982953,0.0,4305.128418,4374.487305,4286.282227,4347.179688,4389.615234,4393.846191,4413.333496,4456.025879,4411.282227,4360.128418,4410.384766,4171.025879,4415.769043
1698668142.990761,0.0,4307.820313,4373.717773,4285.512695,4346.794922,4390.512695,4398.077148,4414.230957,4455.384766,4408.205078,4363.333496,4408.846191,4164.487305,4418.717773
1698668142.998569,0.0,4306.922852,4364.487305,4287.692383,4347.820313,4389.487305,4396.538574,4411.410156,4456.025879,4407.692383,4366.282227,4410.128418,4172.05127,4418.589844
1698668143.006377,0.0,4308.461426,4367.820313,4289.871582,4347.436035,4389.743652,4394.743652,4413.077148,4456.282227,4409.871582,4362.692383,4407.563965,4166.538574,4417.436035
1698668143.014186,0.0,4310.0,4374.230957,4292.820313,4346.666504,4389.871582,4395.641113,4413.846191,4454.615234,4408.589844,4359.871582,4409.358887,4168.846191,4420.256348
1698668143.021994,0.0,4305.769043,4373.333496,4288.461426,4345.512695,4389.871582,4396.025879,4408.589844,4457.563965,4409.487305,4362.820313,4409.743652,4170.769043,4420.256348
1698668143.029802,0.0,4304.358887,4368.846191,4285.0,4343.589844,4391.153809,4393.846191,4409.743652,4458.461426,4408.333496,4364.230957,4408.461426,4165.0,4419.871582
1698668143.03761,0.0,4306.538574,4367.820313,4290.512695,4346.922852,4391.794922,4393.589844,4413.461426,4455.512695,4407.05127,4362.692383,4411.794922,4171.153809,4421.282227
1698668143.045418,0.0,4305.384766,4370.512695,4289.358887,4346.794922,4389.743652,4396.025879,4414.230957,4458.205078,4410.0,4362.179688,4410.512695,4166.410156,4420.128418
1698668143.053227,0.0,4303.717773,4370.512695,4287.692383,4344.871582,4388.589844,4394.743652,4412.436035,4460.769043,4412.94873,4362.820313,4410.769043,4165.128418,4418.846191
1698668143.061035,0.0,4302.179688,4371.410156,4289.230957,4345.384766,4387.436035,4394.358887,4411.025879,4458.333496,4414.230957,4363.589844,4411.153809,4163.846191,4419.871582
1698668143.068843,0.0,4306.922852,4371.153809,4287.307617,4345.384766,4386.282227,4394.615234,4409.871582,4454.743652,4411.153809,4362.692383,4407.436035,4158.077148,4418.974121
1698668143.076651,0.0,4313.333496,4368.333496,4288.333496,4347.563965,4386.282227,4392.05127,4406.538574,4455.769043,4409.743652,4362.307617,4410.0,4167.692383,4417.05127
1698668143.084459,0.0,4307.94873,4368.205078,4287.307617,4346.666504,4388.333496,4391.282227,4407.94873,4460.769043,4414.102539,4361.153809,4411.282227,4165.128418,4416.153809
1698668143.092268,0.0,4306.538574,4370.256348,4286.410156,4346.282227,4392.179688,4389.615234,4411.153809,4461.153809,4414.102539,4359.871582,4405.897461,4165.384766,4416.025879
1698668143.100076,0.0,4309.358887,4368.461426,4283.717773,4348.589844,4391.794922,4390.256348,4411.410156,4459.615234,4411.794922,4361.666504,4404.102539,4169.871582,4417.05127
1698668143.107884,0.0,4310.0,4365.384766,4281.666504,4347.563965,4388.205078,4394.487305,4410.769043,4460.512695,4412.820313,4362.692383,4408.333496,4161.538574,4417.820313
1698668143.115693,0.0,4312.692383,4367.05127,4288.461426,4347.94873,4388.077148,4395.384766,4408.974121,4459.102539,4415.256348,4362.94873,4412.436035,4170.512695,4418.461426
1698668143.123501,0.0,4312.563965,4371.538574,4285.512695,4347.179688,4390.384766,4397.692383,4409.871582,4458.974121,4417.563965,4361.794922,4408.589844,4169.230957,4418.461426
1698668143.131309,0.0,4315.641113,4368.846191,4283.589844,4346.025879,4390.384766,4396.666504,4411.282227,4461.666504,4416.410156,4361.922852,4405.512695,4161.025879,4417.307617
1698668143.139117,0.0,4311.666504,4363.333496,4287.05127,4347.563965,4388.589844,4393.333496,4411.538574,4461.282227,4417.820313,4367.820313,4408.077148,4165.0,4416.025879
1698668143.146925,0.0,4306.666504,4366.666504,4285.0,4347.179688,4389.230957,4394.102539,4410.897461,4457.05127,4416.794922,4365.897461,4406.922852,4158.717773,4415.897461
1698668143.154734,0.0,4312.436035,4367.94873,4289.487305,4345.384766,4387.94873,4393.717773,4409.871582,4454.871582,4412.820313,4361.666504,4405.512695,4164.743652,4415.0
1698668143.162542,0.0,4313.717773,4366.282227,4286.153809,4343.077148,4386.794922,4395.641113,4411.538574,4460.384766,4415.897461,4365.512695,4405.512695,4164.871582,4412.179688
1698668143.17035,0.0,4314.102539,4368.846191,4283.077148,4345.256348,4389.230957,4397.820313,4409.871582,4462.94873,4417.179688,4365.0,4408.461426,4159.615234,4415.128418
1698668143.178158,0.0,4312.436035,4369.743652,4291.410156,4347.94873,4390.769043,4396.922852,4404.615234,4459.615234,4416.666504,4363.589844,4409.615234,4169.487305,4418.077148
1698668143.185966,0.0,4309.102539,4369.230957,4291.666504,4344.871582,4390.384766,4397.436035,4407.692383,4461.025879,4417.563965,4363.846191,4405.897461,4161.922852,4413.974121
1698668143.193775,0.0,4311.538574,4368.333496,4287.94873,4345.256348,4388.717773,4396.153809,4413.461426,4462.436035,4416.282227,4364.358887,4410.641113,4160.897461,4413.205078
1698668143.201583,0.0,4311.282227,4370.897461,4287.179688,4346.282227,4387.179688,4395.0,4412.179688,4460.512695,4417.05127,4367.179688,4410.769043,4163.333496,4414.615234
1698668143.209391,0.0,4313.077148,4370.0,4292.05127,4345.512695,4387.692383,4393.974121,4409.487305,4461.025879,4418.846191,4366.153809,4403.077148,4158.589844,4412.563965
1698668143.217199,0.0,4310.384766,4365.256348,4294.102539,4348.077148,4388.333496,4394.230957,4409.230957,4462.179688,4420.128418,4365.384766,4405.512695,4167.179688,4411.410156
1698668143.225007,0.0,4307.05127,4367.692383,4285.0,4346.666504,4387.307617,4397.05127,4411.538574,4460.897461,4421.282227,4367.820313,4409.102539,4161.922852,4409.615234
1698668143.232816,0.0,4311.538574,4366.922852,4287.692383,4344.615234,4387.05127,4397.05127,4411.153809,4462.563965,4423.461426,4370.256348,4408.974121,4162.94873,4407.563965
1698668143.240624,0.0,4308.077148,4366.794922,4292.94873,4346.025879,4389.102539,4397.436035,4410.769043,4465.256348,4425.512695,4371.025879,4407.307617,4166.410156,4410.128418
1698668143.248432,0.0,4308.205078,4370.0,4289.230957,4345.769043,4388.974121,4398.461426,4414.358887,4464.358887,4423.461426,4370.897461,4405.769043,4154.743652,4410.0
1698668143.25624,0.0,4313.205078,4369.743652,4290.512695,4347.179688,4388.205078,4397.05127,4412.179688,4464.487305,4423.333496,4372.820313,4408.974121,4161.538574,4408.077148
1698668143.264048,0.0,4307.820313,4371.153809,4288.846191,4345.512695,4389.358887,4398.461426,4408.589844,4466.153809,4424.487305,4370.512695,4408.717773,4163.077148,4407.436035
1698668143.271857,0.0,4306.025879,4369.358887,4288.846191,4341.410156,4389.615234,4396.794922,4408.205078,4467.563965,4423.846191,4368.589844,4408.717773,4162.563965,4404.358887
1698668143.279665,0.0,4306.153809,4369.743652,4290.128418,4343.077148,4391.922852,4394.358887,4410.897461,4465.0,4423.846191,4372.436035,4407.563965,4165.641113,4404.102539
1698668143.287473,0.0,4304.102539,4371.410156,4284.743652,4344.102539,4393.589844,4398.589844,4413.846191,4463.717773,4424.230957,4370.897461,4403.846191,4154.615234,4405.128418
1698668143.295282,0.0,4307.436035,4371.282227,4287.692383,4344.102539,4389.487305,4398.461426,4410.512695,4466.153809,4425.128418,4369.102539,4407.94873,4159.230957,4405.769043
1698668143.30309,0.0,4309.487305,4373.846191,4291.794922,4343.589844,4389.871582,4396.025879,4410.512695,4466.153809,4424.743652,4372.179688,4406.666504,4158.333496,4405.0
1698668143.310898,0.0,4310.128418,4371.282227,4293.333496,4343.589844,4393.589844,4396.666504,4411.282227,4469.358887,4424.358887,4370.128418,4404.615234,4157.94873,4402.307617
1698668143.318706,0.0,4305.897461,4368.589844,4292.179688,4346.153809,4390.256348,4398.589844,4410.0,4471.025879,4427.179688,4369.615234,4408.846191,4169.743652,4404.230957
1698668143.326514,0.0,4304.487305,4371.410156,4286.922852,4344.358887,4388.846191,4398.846191,4412.179688,4469.102539,4426.922852,4371.282227,4407.307617,4159.358887,4405.641113
1698668143.334323,0.0,4312.179688,4374.230957,4289.487305,4344.487305,4391.153809,4392.94873,4411.282227,4468.589844,4426.922852,4370.0,4406.666504,4157.307617,4402.94873
1698668143.342131,0.0,4307.436035,4375.641113,4287.563965,4346.025879,4389.743652,4394.358887,4411.666504,4470.641113,4428.974121,4370.512695,4408.077148,4162.05127,4402.820313
1698668143.349939,0.0,4305.769043,4372.692383,4284.230957,4344.487305,4389.615234,4399.615234,4411.538574,4474.743652,4421.794922,4369.615234,4407.436035,4161.410156,4403.974121
1698668143.357747,0.0,4310.128418,4369.102539,4289.358887,4345.897461,4392.563965,4397.436035,4409.230957,4471.666504,4419.230957,4371.410156,4406.922852,4167.179688,4403.333496
1698668143.365555,0.0,4306.794922,4371.538574,4290.128418,4346.025879,4391.282227,4397.307617,4413.974121,4470.0,4422.820313,4371.410156,4403.846191,4160.384766,4402.05127
1698668143.373364,0.0,4308.077148,4371.025879,4290.512695,4344.743652,4388.846191,4398.717773,4415.0,4473.205078,4420.512695,4368.846191,4404.230957,4162.436035,4404.230957
1698668143.381172,0.0,4305.641113,4370.0,4287.820313,4343.974121,4389.230957,4397.05127,4410.769043,4469.230957,4422.820313,4373.846191,4407.563965,4167.05127,4404.487305
1698668143.38898,0.0,4306.538574,4372.692383,4287.436035,4343.461426,4387.436035,4397.692383,4412.692383,4468.461426,4421.666504,4371.153809,4407.05127,4159.615234,4400.769043
1698668143.396788,0.0,4310.384766,4372.436035,4290.897461,4343.333496,4388.205078,4398.333496,4413.461426,4471.794922,4419.230957,4365.897461,4406.922852,4162.436035,4399.615234
1698668143.404596,0.0,4302.05127,4373.589844,4286.410156,4344.102539,4391.538574,4398.333496,4409.871582,4469.871582,4422.436035,4369.102539,4405.512695,4160.897461,4399.230957
1698668143.412405,0.0,4301.794922,4373.333496,4287.179688,4347.820313,4390.641113,4396.410156,4408.333496,4469.743652,4421.153809,4368.205078,4405.384766,4149.102539,4400.128418
1698668143.420213,0.0,4308.974121,4371.153809,4287.94873,4345.384766,4389.615234,4397.05127,4410.0,4473.205078,4420.641113,4367.05127,4407.307617,4158.333496,4400.256348
1698668143.428021,0.0,4309.230957,4371.282227,4284.615234,4340.769043,4392.179688,4401.025879,4413.205078,4473.205078,4421.025879,4366.025879,4405.128418,4178.717773,4399.487305
1698668143.435829,0.0,4306.025879,4373.589844,4287.820313,4345.256348,4393.077148,4400.512695,4412.692383,4470.256348,4418.974121,4365.512695,4403.461426,4173.589844,4400.128418
1698668143.443637,0.0,4303.846191,4376.538574,4284.743652,4347.05127,4392.436035,4398.461426,4412.179688,4470.128418,4417.820313,4366.410156,4403.461426,4149.230957,4398.846191
1698668143.451446,0.0,4305.384766,4373.077148,4283.077148,4343.461426,4392.05127,4396.410156,4412.94873,4469.871582,4416.922852,4365.641113,4407.94873,4137.820313,4395.641113
1698668143.459254,0.0,4305.128418,4373.077148,4285.384766,4344.615234,4390.769043,4396.538574,4412.563965,4470.128418,4418.205078,4368.589844,4405.897461,4165.512695,4396.282227
1698668143.467062,0.0,4304.743652,4378.077148,4284.230957,4346.153809,4389.358887,4401.282227,4412.307617,4469.230957,4417.563965,4368.333496,4398.589844,4200.128418,4398.717773
1698668143.474871,0.0,4307.94873,4373.717773,4286.410156,4345.0,4387.307617,4402.05127,4408.974121,4465.0,4415.384766,4365.769043,4404.615234,4192.436035,4396.666504
1698668143.482679,0.0,4305.897461,4370.897461,4282.436035,4342.692383,4388.717773,4400.0,4410.256348,4466.538574,4418.974121,4367.05127,4407.94873,4146.282227,4397.692383
1698668143.490487,0.0,4303.846191,4374.230957,4280.897461,4341.666504,4392.436035,4398.589844,4413.717773,4471.282227,4418.077148,4364.871582,4404.230957,4118.974121,4397.820313
1698668143.498295,0.0,4303.717773,4376.153809,4285.256348,4345.256348,4390.512695,4398.333496,4412.436035,4471.153809,4413.846191,4364.102539,4402.820313,4158.846191,4395.641113
1698668143.506103,0.0,4304.615234,4375.512695,4282.436035,4345.897461,4387.05127,4399.102539,4412.692383,4468.461426,4414.871582,4365.641113,4402.820313,4205.0,4395.384766
1698668143.513912,0.0,4308.589844,4375.384766,4285.897461,4345.641113,4386.922852,4397.179688,4413.717773,4469.102539,4415.769043,4363.974121,4404.871582,4193.205078,4396.025879
1698668143.52172,0.0,4306.153809,4377.94873,4289.102539,4347.692383,4389.871582,4397.563965,4414.871582,4470.0,4416.410156,4362.94873,4404.615234,4153.589844,4398.205078
1698668143.529528,0.0,4306.153809,4380.512695,4287.563965,4348.461426,4391.025879,4403.333496,4414.871582,4468.974121,4416.153809,4361.922852,4405.256348,4128.974121,4398.717773
1698668143.537336,0.0,4310.0,4378.717773,4287.820313,4346.153809,4388.333496,4403.077148,4413.333496,4466.666504,4416.666504,4360.0,4407.05127,4152.563965,4400.128418
1698668143.545144,0.0,4308.205078,4376.666504,4283.589844,4341.025879,4388.461426,4399.743652,4416.025879,4464.487305,4413.333496,4360.0,4400.769043,4193.717773,4398.461426
1698668143.552953,0.0,4308.846191,4378.461426,4286.666504,4342.05127,4392.692383,4398.846191,4416.025879,4466.538574,4410.512695,4361.538574,4399.487305,4197.436035,4395.769043
1698668143.560761,0.0,4306.025879,4378.974121,4288.077148,4345.769043,4391.794922,4400.641113,4412.436035,4468.974121,4414.871582,4360.512695,4403.333496,4163.461426,4399.230957
1698668143.568569,0.0,4305.897461,4375.769043,4280.897461,4345.641113,4386.922852,4400.769043,4414.871582,4468.974121,4414.743652,4358.461426,4400.256348,4134.871582,4400.128418
1698668143.576377,0.0,4311.794922,4374.230957,4283.589844,4346.922852,4388.589844,4395.897461,4416.922852,4468.846191,4413.333496,4361.282227,4398.846191,4156.538574,4399.102539
1698668143.584185,0.0,4310.128418,4378.974121,4283.077148,4345.384766,4392.692383,4396.538574,4413.717773,4468.717773,4413.205078,4361.025879,4400.256348,4190.0,4398.717773
1698668143.591994,0.0,4306.282227,4378.974121,4281.025879,4344.487305,4390.641113,4400.641113,4412.436035,4462.94873,4411.153809,4356.794922,4402.307617,4191.922852,4398.974121
1698668143.599802,0.0,4301.282227,4374.871582,4282.820313,4345.641113,4386.666504,4401.666504,4415.384766,4461.410156,4413.077148,4358.717773,4399.743652,4172.94873,4401.922852
1698668143.60761,0.0,4300.897461,4376.410156,4282.307617,4345.0,4386.666504,4400.0,4415.641113,4467.05127,4414.102539,4360.128418,4394.743652,4147.94873,4402.563965
1698668143.615418,0.0,4307.179688,4379.743652,4285.384766,4346.282227,4387.692383,4396.794922,4412.436035,4468.205078,4412.307617,4360.512695,4398.974121,4151.922852,4400.769043
1698668143.623227,0.0,4306.794922,4381.666504,4284.487305,4344.358887,4389.102539,4401.410156,4416.922852,4467.307617,4412.563965,4359.871582,4398.974121,4180.769043,4398.589844
1698668143.631035,0.0,4307.05127,4376.538574,4287.179688,4342.820313,4392.05127,4404.487305,4419.871582,4465.641113,4412.94873,4357.436035,4397.820313,4197.94873,4397.05127
1698668143.638843,0.0,4305.769043,4376.410156,4288.974121,4347.436035,4391.538574,4398.461426,4413.077148,4464.358887,4413.846191,4360.897461,4402.179688,4178.333496,4402.820313
1698668143.646651,0.0,4303.974121,4382.307617,4280.897461,4347.820313,4389.230957,4396.153809,4413.589844,4468.974121,4413.846191,4360.256348,4400.512695,4138.205078,4403.589844
1698668143.65446,0.0,4306.153809,4378.077148,4284.615234,4346.538574,4390.769043,4397.820313,4416.025879,4469.102539,4412.563965,4357.94873,4398.333496,4138.717773,4398.589844
1698668143.662268,0.0,4302.563965,4376.025879,4288.974121,4347.05127,4392.436035,4400.769043,4416.025879,4461.794922,4410.0,4358.461426,4398.461426,4185.897461,4401.538574
1698668143.670076,0.0,4305.512695,4379.102539,4288.461426,4347.436035,4390.128418,4401.538574,4416.153809,4458.846191,4408.333496,4355.128418,4397.94873,4218.205078,4403.846191
1698668143.677884,0.0,4309.230957,4379.230957,4286.153809,4347.436035,4388.974121,4398.846191,4413.205078,4460.897461,4410.769043,4356.666504,4400.641113,4188.333496,4403.333496
1698668143.685692,0.0,4302.436035,4377.563965,4278.846191,4344.230957,4390.0,4399.615234,4415.641113,4459.871582,4410.769043,4360.641113,4401.538574,4125.128418,4401.538574
1698668143.693501,0.0,4303.589844,4375.0,4285.512695,4345.512695,4391.666504,4399.871582,4418.333496,4457.563965,4408.461426,4358.974121,4399.871582,4124.743652,4398.077148
1698668143.701309,0.0,4304.358887,4376.794922,4292.820313,4348.077148,4392.05127,4399.871582,4415.512695,4459.358887,4406.922852,4355.384766,4396.410156,4171.410156,4403.205078
1698668143.709117,0.0,4305.128418,4376.153809,4288.589844,4345.256348,4390.897461,4400.897461,4413.589844,4460.769043,4403.974121,4354.230957,4397.820313,4228.461426,4409.230957
1698668143.716925,0.0,4312.179688,4369.358887,4292.436035,4347.563965,4389.358887,4399.743652,4414.358887,4462.563965,4411.025879,4359.743652,4405.512695,4207.179688,4399.487305
1698668143.724733,0.0,4305.897461,4368.077148,4293.717773,4349.487305,4389.743652,4399.102539,4412.692383,4466.538574,4419.871582,4363.461426,4404.230957,4119.102539,4393.461426
1698668143.732542,0.0,4300.384766,4369.230957,4289.358887,4350.0,4390.128418,4395.897461,4404.615234,4462.820313,4420.256348,4365.641113,4402.94873,4150.128418,4403.717773
1698668143.74035,0.0,4299.871582,4371.538574,4282.563965,4349.743652,4388.461426,4393.717773,4405.641113,4466.282227,4432.820313,4373.974121,4405.0,4259.358887,4404.358887
1698668143.748158,0.0,4298.717773,4375.512695,4275.384766,4345.0,4388.205078,4396.153809,4412.05127,4472.05127,4438.205078,4377.692383,4400.128418,4310.641113,4402.692383
1698668143.755966,0.0,4302.179688,4376.666504,4280.128418,4347.179688,4389.230957,4396.282227,4408.846191,4466.025879,4431.025879,4378.717773,4402.05127,4277.307617,4410.512695
1698668143.763775,0.0,4302.179688,4375.897461,4279.230957,4349.358887,4389.743652,4399.230957,4409.743652,4466.922852,4435.897461,4379.230957,4402.563965,4177.179688,4409.743652
1698668143.771583,0.0,4303.846191,4373.974121,4279.358887,4346.282227,4387.05127,4401.410156,4413.717773,4471.153809,4433.333496,4376.410156,4399.358887,4143.333496,4407.94873
1698668143.779391,0.0,4301.794922,4375.0,4283.589844,4345.769043,4386.538574,4398.717773,4412.692383,4468.974121,4428.461426,4377.307617,4402.179688,4221.025879,4407.563965
1698668143.787199,0.0,4299.743652,4376.410156,4275.769043,4346.153809,4390.769043,4398.974121,4414.487305,4469.358887,4431.410156,4375.512695,4402.563965,4293.846191,4405.384766
1698668143.795007,0.0,4303.846191,4374.871582,4278.333496,4347.179688,4391.153809,4397.436035,4413.589844,4469.871582,4433.205078,4372.820313,4403.077148,4267.820313,4409.358887
1698668143.802816,0.0,4301.410156,4376.282227,4281.410156,4346.153809,4388.589844,4397.05127,4412.05127,4467.05127,4432.820313,4374.487305,4402.307617,4192.563965,4407.692383
1698668143.810624,0.0,4300.0,4372.820313,4276.153809,4345.128418,4389.230957,4397.820313,4415.128418,4468.974121,4429.358887,4375.128418,4400.769043,4152.94873,4403.974121
1698668143.818432,0.0,4298.846191,4372.05127,4277.436035,4346.922852,4390.128418,4397.692383,4414.615234,4468.846191,4427.563965,4376.025879,4400.128418,4208.589844,4409.230957
1698668143.82624,0.0,4298.589844,4378.589844,4281.666504,4345.897461,4388.974121,4399.358887,4412.820313,4465.641113,4428.461426,4375.384766,4398.974121,4280.128418,4409.743652
1698668143.834049,0.0,4305.769043,4376.282227,4284.358887,4347.436035,4388.846191,4398.077148,4412.05127,4467.179688,4428.974121,4372.820313,4403.205078,4272.94873,4405.769043
1698668143.841857,0.0,4305.256348,4373.717773,4279.871582,4348.717773,4389.358887,4397.820313,4412.436035,4465.769043,4426.025879,4369.743652,4398.205078,4205.128418,4409.615234
1698668143.849665,0.0,4301.282227,4376.153809,4277.179688,4343.974121,4388.077148,4398.333496,4413.717773,4465.769043,4422.436035,4369.615234,4391.153809,4151.410156,4410.0
1698668143.857473,0.0,4302.563965,4379.743652,4281.153809,4343.333496,4390.384766,4398.974121,4411.922852,4462.692383,4421.666504,4370.897461,4396.025879,4194.743652,4410.769043
1698668143.865281,0.0,4306.282227,4378.589844,4280.0,4346.666504,4393.205078,4398.589844,4413.077148,4458.717773,4421.922852,4370.512695,4397.563965,4274.615234,4414.230957
1698668143.87309,0.0,4310.128418,4372.05127,4282.436035,4346.025879,4390.641113,4394.615234,4414.615234,4463.717773,4421.794922,4373.205078,4395.641113,4275.256348,4411.666504
1698668143.880898,0.0,4305.641113,4376.153809,4283.717773,4343.077148,4390.512695,4398.974121,4414.230957,4462.563965,4416.666504,4371.922852,4395.512695,4210.769043,4411.025879
1698668143.888706,0.0,4299.358887,4378.205078,4278.717773,4341.922852,4392.436035,4402.820313,4414.743652,4460.384766,4415.769043,4369.871582,4395.641113,4166.666504,4412.820313
1698668143.896514,0.0,4302.05127,4376.153809,4281.794922,4346.410156,4393.077148,4395.0,4411.922852,4458.077148,4417.05127,4368.974121,4399.487305,4199.358887,4416.410156
1698668143.904323,0.0,4306.666504,4374.102539,4282.05127,4347.179688,4393.461426,4393.461426,4412.820313,4450.384766,4412.436035,4365.384766,4402.820313,4255.897461,4415.897461
1698668143.912131,0.0,4306.666504,4369.358887,4279.487305,4343.589844,4391.538574,4397.692383,4413.974121,4454.615234,4413.461426,4367.307617,4400.641113,4268.589844,4412.820313
1698668143.919939,0.0,4302.436035,4372.692383,4281.282227,4344.871582,4389.743652,4397.05127,4410.512695,4458.077148,4413.717773,4366.025879,4400.128418,4222.820313,4418.717773
1698668143.927747,0.0,4304.358887,4370.769043,4281.410156,4346.282227,4390.641113,4397.05127,4412.436035,4454.358887,4411.410156,4363.077148,4401.282227,4171.666504,4417.692383
1698668143.935555,0.0,4310.512695,4367.436035,4282.820313,4346.666504,4389.615234,4398.077148,4416.794922,4455.897461,4412.05127,4365.769043,4402.307617,4194.743652,4413.717773
1698668143.943364,0.0,4304.871582,4375.256348,4280.897461,4344.743652,4388.333496,4397.94873,4415.641113,4456.922852,4407.05127,4362.563965,4402.05127,4250.897461,4417.563965
1698668143.951172,0.0,4302.05127,4377.307617,4284.358887,4345.128418,4390.256348,4397.820313,4411.153809,4456.153809,4405.256348,4359.487305,4401.153809,4262.563965,4415.256348
1698668143.95898,0.0,4307.179688,4371.922852,4286.794922,4348.461426,4389.743652,4399.487305,4412.692383,4457.307617,4410.897461,4362.820313,4401.794922,4224.358887,4414.102539
1698668143.966788,0.0,4308.974121,4369.615234,4279.743652,4344.487305,4389.743652,4400.641113,4415.0,4457.94873,4409.102539,4361.025879,4401.410156,4188.205078,4419.102539
1698668143.974596,0.0,4307.692383,4370.128418,4283.333496,4342.436035,4390.897461,4396.794922,4409.743652,4457.436035,4407.179688,4360.769043,4404.487305,4203.205078,4420.0
1698668143.982405,0.0,4303.846191,4372.436035,4284.615234,4344.358887,4388.333496,4395.384766,4409.358887,4456.794922,4413.717773,4364.743652,4404.871582,4240.512695,4418.589844
1698668143.990213,0.0,4307.692383,4374.230957,4279.615234,4344.487305,4387.05127,4397.563965,4413.461426,4457.436035,4414.358887,4361.666504,4399.358887,4252.820313,4415.384766
1698668143.998021,0.0,4309.871582,4372.94873,4281.922852,4343.461426,4390.128418,4398.846191,4411.666504,4457.307617,4411.153809,4361.538574,4398.974121,4230.769043,4416.025879
1698668144.005829,0.0,4303.846191,4374.743652,4283.974121,4342.436035,4391.282227,4397.820313,4411.025879,4455.769043,4411.538574,4363.589844,4400.0,4203.846191,4420.128418
1698668144.013638,0.0,4302.820313,4375.384766,4286.410156,4344.358887,4389.230957,4396.025879,4412.94873,4454.487305,4412.94873,4362.94873,4402.05127,4210.0,4418.333496
1698668144.021446,0.0,4301.666504,4372.05127,4284.743652,4344.230957,4391.025879,4397.179688,4413.461426,4460.128418,4413.974121,4363.589844,4404.102539,4233.333496,4416.410156
1698668144.029254,0.0,4305.897461,4372.820313,4282.05127,4345.641113,4393.205078,4395.128418,4413.461426,4464.743652,4410.641113,4361.282227,4402.94873,4239.230957,4418.589844
1698668144.037062,0.0,4308.461426,4374.102539,4285.897461,4347.94873,4389.615234,4391.922852,4410.512695,4461.666504,4409.358887,4361.153809,4401.922852,4228.717773,4420.641113
1698668144.044871,0.0,4305.641113,4375.769043,4286.410156,4345.769043,4388.589844,4396.794922,4410.641113,4460.0,4411.794922,4363.589844,4401.153809,4215.0,4419.615234
1698668144.052679,0.0,4306.922852,4373.333496,4289.743652,4346.282227,4389.743652,4397.692383,4413.589844,4459.871582,4412.692383,4364.871582,4402.94873,4218.205078,4417.94873
1698668144.060487,0.0,4303.717773,4370.128418,4288.846191,4346.666504,4388.717773,4392.820313,4412.05127,4459.743652,4414.487305,4368.205078,4401.538574,4229.871582,4420.0
1698668144.068295,0.0,4306.410156,4371.922852,4284.358887,4342.436035,4389.358887,4395.769043,4410.769043,4462.94873,4413.974121,4367.179688,4400.128418,4230.384766,4422.307617
1698668144.076103,0.0,4312.307617,4372.563965,4288.077148,4344.358887,4390.769043,4399.743652,4411.025879,4465.384766,4411.794922,4365.128418,4410.0,4231.153809,4420.384766
1698668144.083912,0.0,4305.384766,4373.333496,4289.615234,4347.05127,4390.897461,4397.179688,4412.05127,4464.102539,4412.436035,4366.410156,4411.025879,4223.846191,4417.94873
1698668144.09172,0.0,4303.589844,4372.307617,4290.128418,4343.077148,4391.410156,4394.871582,4411.922852,4459.487305,4412.436035,4366.538574,4402.307617,4221.922852,4418.205078
1698668144.099528,0.0,4309.230957,4372.307617,4286.410156,4341.794922,4389.743652,4397.436035,4409.615234,4459.358887,4414.871582,4367.563965,4404.487305,4227.179688,4420.128418
1698668144.107336,0.0,4311.538574,4369.743652,4283.333496,4345.0,4386.410156,4399.230957,4411.410156,4461.794922,4417.563965,4366.794922,4407.94873,4221.794922,4418.461426
1698668144.115144,0.0,4310.769043,4365.256348,4290.641113,4346.410156,4387.05127,4395.897461,4411.922852,4461.538574,4414.102539,4365.384766,4404.871582,4227.820313,4413.589844
1698668144.122953,0.0,4308.077148,4368.589844,4289.743652,4346.282227,4390.897461,4395.769043,4411.025879,4461.410156,4414.102539,4367.563965,4401.282227,4226.410156,4414.358887
1698668144.130761,0.0,4308.205078,4368.717773,4286.153809,4347.05127,4390.256348,4397.692383,4412.05127,4459.743652,4418.333496,4368.077148,4402.820313,4223.717773,4416.666504
1698668144.138569,0.0,4307.307617,4366.666504,4288.333496,4346.282227,4387.307617,4395.641113,4412.05127,4460.897461,4419.487305,4365.641113,4407.94873,4231.153809,4415.641113
1698668144.146377,0.0,4306.153809,4368.589844,4287.05127,4343.461426,4389.102539,4396.153809,4411.794922,4464.487305,4414.102539,4363.333496,4406.922852,4222.563965,4414.358887
1698668144.154185,0.0,4309.230957,4367.692383,4286.922852,4346.922852,4391.922852,4398.333496,4410.897461,4463.717773,4414.871582,4365.641113,4405.0,4225.641113,4413.077148
1698668144.161994,0.0,4308.589844,4366.153809,4286.153809,4350.0,4391.025879,4398.205078,4411.922852,4464.102539,4423.205078,4367.94873,4403.846191,4227.94873,4412.436035
1698668144.169802,0.0,4310.128418,4367.05127,4284.615234,4346.666504,4390.0,4396.410156,4414.487305,4466.538574,4420.384766,4366.538574,4403.589844,4224.230957,4415.128418
1698668144.17761,0.0,4312.94873,4366.538574,4286.666504,4344.871582,4390.0,4397.05127,4415.0,4468.717773,4418.205078,4368.589844,4405.256348,4232.307617,4415.384766
1698668144.185418,0.0,4309.358887,4368.333496,4285.641113,4343.717773,4389.487305,4399.871582,4413.974121,4468.333496,4423.077148,4371.282227,4403.077148,4225.256348,4412.563965
1698668144.193227,0.0,4308.846191,4371.794922,4288.846191,4344.230957,4389.102539,4396.538574,4412.820313,4465.769043,4421.794922,4370.512695,4404.102539,4224.615234,4415.641113
1698668144.201035,0.0,4309.871582,4371.410156,4290.897461,4345.897461,4388.717773,4395.641113,4415.0,4464.230957,4418.077148,4367.94873,4408.333496,4227.307617,4417.94873
1698668144.208843,0.0,4311.153809,4371.153809,4287.563965,4344.358887,4387.307617,4398.846191,4411.025879,4462.692383,4419.230957,4367.820313,4407.820313,4222.94873,4410.897461
1698668144.216651,0.0,4309.871582,4368.461426,4286.153809,4345.641113,4388.205078,4398.717773,4405.256348,4463.846191,4422.307617,4371.410156,4404.358887,4230.512695,4408.333496
1698668144.22446,0.0,4308.077148,4369.615234,4284.615234,4345.384766,4390.769043,4398.717773,4409.743652,4465.384766,4423.077148,4368.846191,4401.794922,4225.512695,4412.692383
1698668144.232268,0.0,4310.641113,4373.077148,4291.153809,4344.358887,4388.974121,4396.410156,4412.563965,4464.615234,4423.589844,4366.153809,4406.410156,4226.025879,4414.615234
1698668144.240076,0.0,4306.282227,4370.641113,4293.077148,4344.871582,4387.05127,4395.128418,4411.922852,4466.794922,4425.0,4369.487305,4408.717773,4231.282227,4411.922852
1698668144.247884,0.0,4305.256348,4373.077148,4285.256348,4346.153809,4391.282227,4397.563965,4412.820313,4470.384766,4424.487305,4369.102539,4405.384766,4223.333496,4409.615234
1698668144.255692,0.0,4308.333496,4373.333496,4284.102539,4348.205078,4392.05127,4396.794922,4409.615234,4468.846191,4424.102539,4369.871582,4407.436035,4229.871582,4409.615234
1698668144.263501,0.0,4304.487305,4370.0,4284.230957,4345.256348,4387.436035,4396.282227,4409.615234,4468.077148,4424.743652,4374.230957,4408.333496,4227.307617,4408.717773
1698668144.271309,0.0,4307.692383,4370.512695,4285.897461,4345.0,4386.922852,4397.179688,4413.974121,4469.871582,4425.512695,4372.436035,4408.333496,4222.692383,4407.692383
1698668144.279117,0.0,4310.128418,4369.230957,4286.282227,4347.820313,4388.846191,4395.641113,4415.256348,4468.717773,4428.846191,4372.05127,4408.846191,4228.333496,4407.05127
1698668144.286925,0.0,4309.615234,4365.769043,4285.512695,4345.769043,4386.922852,4395.897461,4413.717773,4469.871582,4428.589844,4373.974121,4407.692383,4223.077148,4408.589844
1698668144.294733,0.0,4313.461426,4366.538574,4291.410156,4344.230957,4385.256348,4396.282227,4412.563965,4469.743652,4425.256348,4371.410156,4412.692383,4226.025879,4406.922852
1698668144.302542,0.0,4308.461426,4374.102539,4291.922852,4345.384766,4389.102539,4396.538574,4412.05127,4467.05127,4427.179688,4371.025879,4411.794922,4223.974121,4402.436035
1698668144.31035,0.0,4305.769043,4373.846191,4291.282227,4346.922852,4391.538574,4395.769043,4410.897461,4470.897461,4426.025879,4369.743652,4408.077148,4222.692383,4404.871582
1698668144.318158,0.0,4308.589844,4370.256348,4291.025879,4344.487305,4389.487305,4396.538574,4409.615234,4473.077148,4425.128418,4370.0,4408.333496,4231.282227,4404.615234
1698668144.325966,0.0,4306.922852,4372.692383,4287.563965,4341.410156,4388.589844,4400.256348,4412.692383,4471.025879,4426.538574,4371.794922,4407.563965,4219.230957,4400.512695
1698668144.333774,0.0,4307.563965,4373.205078,4293.077148,4345.0,4389.358887,4400.641113,4414.487305,4471.538574,4423.589844,4368.974121,4411.025879,4221.153809,4402.820313
1698668144.341583,0.0,4305.641113,4375.384766,4290.897461,4345.769043,4389.230957,4397.307617,4413.589844,4471.538574,4425.384766,4370.769043,4411.922852,4226.666504,4403.461426
1698668144.349391,0.0,4306.666504,4372.820313,4283.333496,4342.179688,4387.820313,4395.128418,4412.05127,4470.512695,4425.256348,4369.615234,4408.717773,4218.974121,4401.025879
1698668144.357199,0.0,4310.512695,4368.589844,4288.974121,4343.846191,4386.282227,4395.641113,4410.256348,4471.282227,4422.307617,4367.820313,4407.05127,4226.282227,4402.307617
1698668144.365008,0.0,4306.922852,4372.94873,4290.384766,4345.384766,4386.922852,4398.077148,4413.846191,4472.307617,4423.461426,4369.230957,4403.974121,4224.615234,4401.153809
1698668144.372816,0.0,4307.820313,4374.487305,4288.077148,4345.0,4389.487305,4396.282227,4413.589844,4471.025879,4421.922852,4367.05127,4404.871582,4222.94873,4399.871582
1698668144.380624,0.0,4309.230957,4371.410156,4288.077148,4343.974121,4390.769043,4396.922852,4411.794922,4470.897461,4422.820313,4369.358887,4406.153809,4222.820313,4402.436035
1698668144.388432,0.0,4307.05127,4369.871582,4289.487305,4342.820313,4389.230957,4399.102539,4414.871582,4473.333496,4421.922852,4369.358887,4404.230957,4215.128418,4402.820313
1698668144.39624,0.0,4306.410156,4371.794922,4290.897461,4347.307617,4387.179688,4396.666504,4412.94873,4472.820313,4420.769043,4366.410156,4405.0,4223.846191,4401.282227
1698668144.404049,0.0,4306.153809,4375.128418,4284.230957,4346.153809,4387.820313,4398.333496,4411.282227,4473.589844,4423.589844,4366.922852,4405.641113,4220.769043,4401.153809
1698668144.411857,0.0,4309.230957,4373.077148,4286.153809,4341.538574,4388.717773,4399.358887,4410.897461,4474.615234,4422.692383,4365.384766,4405.384766,4217.307617,4397.94873
1698668144.419665,0.0,4306.794922,4370.769043,4291.794922,4345.897461,4387.94873,4396.794922,4410.769043,4471.282227,4423.333496,4367.179688,4404.487305,4222.307617,4396.794922
1698668144.427473,0.0,4303.589844,4372.692383,4289.230957,4346.794922,4388.461426,4398.846191,4411.666504,4470.512695,4423.077148,4367.820313,4406.410156,4213.974121,4400.256348
1698668144.435281,0.0,4304.615234,4371.794922,4287.94873,4344.615234,4389.743652,4399.230957,4411.153809,4472.94873,4420.0,4365.641113,4406.410156,4217.436035,4395.128418
1698668144.44309,0.0,4302.692383,4371.025879,4284.487305,4346.153809,4389.615234,4400.256348,4413.461426,4471.922852,4419.487305,4366.025879,4399.743652,4218.333496,4390.897461
1698668144.450898,0.0,4305.384766,4372.307617,4288.077148,4347.94873,4389.102539,4400.0,4413.589844,4470.512695,4419.102539,4365.769043,4402.692383,4214.358887,4395.0
1698668144.458706,0.0,4308.974121,4372.05127,4290.897461,4347.94873,4389.871582,4398.077148,4411.538574,4471.153809,4419.230957,4366.410156,4408.077148,4221.794922,4396.025879
1698668144.466514,0.0,4307.563965,4375.256348,4282.05127,4345.256348,4389.743652,4399.487305,4413.589844,4468.461426,4419.871582,4366.410156,4401.922852,4218.205078,4394.102539
1698668144.474322,0.0,4307.436035,4374.102539,4279.230957,4346.794922,4387.94873,4399.358887,4414.102539,4465.128418,4419.487305,4363.846191,4401.025879,4216.922852,4395.641113
1698668144.482131,0.0,4307.563965,4373.077148,4282.05127,4348.589844,4387.307617,4398.589844,4413.846191,4468.461426,4419.487305,4361.922852,4402.05127,4217.692383,4398.461426
1698668144.489939,0.0,4308.461426,4376.538574,4285.641113,4344.871582,4388.461426,4400.128418,4414.615234,4472.820313,4417.563965,4361.922852,4398.974121,4213.461426,4396.794922
1698668144.497747,0.0,4308.717773,4375.641113,4285.769043,4342.692383,4387.94873,4400.897461,4413.589844,4472.307617,4417.05127,4366.025879,4399.743652,4220.512695,4396.410156
1698668144.505555,0.0,4306.538574,4375.512695,4282.563965,4344.743652,4387.179688,4400.897461,4414.487305,4470.256348,4419.230957,4365.384766,4401.025879,4224.615234,4398.205078
1698668144.513363,0.0,4306.282227,4375.384766,4289.102539,4347.179688,4388.717773,4399.615234,4414.615234,4466.794922,4418.077148,4360.897461,4401.282227,4222.307617,4398.077148
1698668144.521172,0.0,4305.512695,4375.512695,4289.615234,4346.410156,4390.384766,4398.846191,4412.179688,4464.743652,4417.563965,4363.077148,4399.487305,4222.436035,4398.589844
1698668144.52898,0.0,4306.153809,4375.897461,4281.666504,4345.0,4390.512695,4399.358887,4415.384766,4469.615234,4419.358887,4364.230957,4399.615234,4219.358887,4398.333496
1698668144.536788,0.0,4308.974121,4375.128418,4286.153809,4345.512695,4389.230957,4399.358887,4418.077148,4472.05127,4417.563965,4361.666504,4400.897461,4221.282227,4397.820313
1698668144.544597,0.0,4308.077148,4376.538574,4290.641113,4345.897461,4389.615234,4401.025879,4414.615234,4467.307617,4413.846191,4361.025879,4395.512695,4221.794922,4398.205078
1698668144.552405,0.0,4310.256348,4375.897461,4289.743652,4346.410156,4390.897461,4399.487305,4413.461426,4463.205078,4413.333496,4363.205078,4398.461426,4217.05127,4398.077148
1698668144.560213,0.0,4310.128418,4374.487305,4287.94873,4345.512695,4390.641113,4397.179688,4416.153809,4464.358887,4414.615234,4361.538574,4404.358887,4221.922852,4399.615234
1698668144.568021,0.0,4308.205078,4372.820313,4284.615234,4343.589844,4387.307617,4399.615234,4416.410156,4465.769043,4415.128418,4356.282227,4400.128418,4225.256348,4399.358887
1698668144.575829,0.0,4308.589844,4374.358887,4289.358887,4347.05127,4386.153809,4398.717773,4413.589844,4461.794922,4414.871582,4360.128418,4397.05127,4222.692383,4401.282227
1698668144.583638,0.0,4305.897461,4377.179688,4290.0,4347.307617,4391.794922,4398.205078,4415.256348,4460.256348,4410.512695,4361.025879,4397.563965,4222.307617,4403.974121
1698668144.591446,0.0,4306.282227,4377.820313,4284.358887,4342.94873,4393.846191,4400.897461,4417.179688,4464.358887,4409.871582,4356.410156,4401.666504,4220.897461,4401.666504
1698668144.599254,0.0,4306.025879,4381.025879,4283.589844,4344.871582,4387.563965,4400.769043,4414.358887,4464.743652,4415.256348,4357.94873,4401.666504,4222.179688,4403.846191
1698668144.607062,0.0,4303.974121,4378.974121,4283.589844,4345.897461,4385.769043,4399.615234,4413.974121,4465.512695,4415.0,4358.717773,4394.487305,4226.922852,4403.333496
1698668144.61487,0.0,4307.05127,4375.384766,4289.102539,4346.282227,4391.025879,4400.256348,4413.461426,4466.922852,4413.077148,4359.230957,4397.436035,4229.230957,4401.282227
1698668144.622679,0.0,4307.307617,4377.436035,4288.846191,4345.641113,4391.025879,4403.077148,4414.871582,4463.974121,4411.666504,4358.589844,4402.692383,4218.333496,4404.102539
1698668144.630487,0.0,4305.769043,4378.717773,4285.128418,4344.871582,4388.461426,4403.846191,4415.641113,4462.436035,4408.846191,4355.897461,4398.974121,4199.743652,4401.282227
1698668144.638295,0.0,4302.179688,4380.512695,4287.05127,4347.820313,4390.641113,4400.641113,4412.563965,4460.897461,4411.794922,4357.307617,4397.692383,4218.846191,4399.487305
1698668144.646103,0.0,4301.538574,4380.384766,4285.512695,4346.666504,4391.410156,4399.871582,4414.743652,4460.512695,4412.307617,4358.333496,4401.153809,4252.05127,4401.922852
1698668144.653911,0.0,4306.025879,4377.05127,4289.358887,4346.153809,4388.974121,4401.282227,4415.512695,4462.307617,4410.384766,4357.179688,4402.692383,4247.692383,4403.974121
1698668144.66172,0.0,4303.461426,4377.94873,4290.769043,4344.871582,4387.436035,4402.307617,4413.205078,4460.384766,4411.282227,4356.153809,4398.846191,4211.153809,4405.256348
1698668144.669528,0.0,4304.871582,4380.897461,4287.94873,4342.436035,4389.615234,4400.512695,4413.077148,4460.0,4408.974121,4355.641113,4397.307617,4187.05127,4402.692383
1698668144.677336,0.0,4307.563965,4377.307617,4290.769043,4344.102539,4390.512695,4399.487305,4414.871582,4463.077148,4406.282227,4354.871582,4402.692383,4210.641113,4401.410156
1698668144.685144,0.0,4302.820313,4375.641113,4288.974121,4343.846191,4389.230957,4402.436035,4416.922852,4464.102539,4406.794922,4354.230957,4401.922852,4241.153809,4402.179688
1698668144.692953,0.0,4304.615234,4376.538574,4287.94873,4346.538574,4390.512695,4400.769043,4413.846191,4462.05127,4408.333496,4355.256348,4400.0,4243.846191,4402.820313
1698668144.700761,0.0,4303.846191,4377.94873,4286.410156,4348.717773,4392.820313,4399.743652,4413.461426,4461.666504,4408.333496,4356.666504,4401.922852,4222.563965,4403.846191
1698668144.708569,0.0,4301.282227,4379.743652,4288.205078,4345.897461,4389.615234,4401.922852,4416.025879,4464.615234,4407.05127,4356.666504,4401.666504,4191.794922,4402.563965
1698668144.716377,0.0,4302.692383,4374.871582,4292.563965,4345.256348,4386.153809,4401.666504,4413.589844,4463.589844,4410.0,4357.307617,4403.461426,4205.256348,4402.05127
1698668144.724186,0.0,4301.666504,4375.641113,4285.512695,4345.897461,4389.871582,4400.769043,4412.436035,4458.461426,4409.743652,4356.794922,4403.461426,4241.282227,4405.384766
1698668144.731994,0.0,4305.0,4378.974121,4283.461426,4347.94873,4388.846191,4397.05127,4413.077148,4457.436035,4405.641113,4356.666504,4402.179688,4247.563965,4406.410156
1698668144.739802,0.0,4305.128418,4377.436035,4288.717773,4348.846191,4386.025879,4398.717773,4412.94873,4458.589844,4406.666504,4356.282227,4404.102539,4222.436035,4407.307617
1698668144.74761,0.0,4302.307617,4378.077148,4289.358887,4345.897461,4389.102539,4404.871582,4414.230957,4455.641113,4409.358887,4355.128418,4404.871582,4196.410156,4408.974121
1698668144.755418,0.0,4304.102539,4378.077148,4289.871582,4345.641113,4390.769043,4402.307617,4412.563965,4451.282227,4406.794922,4356.666504,4406.538574,4208.717773,4407.436035
1698668144.763227,0.0,4302.307617,4380.641113,4285.128418,4347.307617,4390.128418,4399.615234,4411.538574,4450.769043,4402.563965,4353.205078,4406.282227,4238.205078,4408.461426
1698668144.771035,0.0,4304.615234,4379.230957,4283.461426,4346.410156,4390.256348,4399.358887,4412.820313,4452.820313,4403.974121,4353.077148,4405.128418,4242.94873,4409.871582
1698668144.778843,0.0,4307.563965,4377.563965,4287.179688,4344.487305,4389.871582,4397.820313,4412.563965,4452.94873,4406.025879,4357.94873,4404.615234,4225.0,4407.436035
1698668144.786651,0.0,4305.256348,4377.05127,4284.871582,4345.641113,4389.615234,4398.846191,4412.563965,4452.692383,4404.615234,4351.410156,4400.897461,4207.179688,4406.794922
1698668144.794459,0.0,4308.846191,4375.256348,4284.487305,4350.384766,4389.102539,4399.358887,4410.897461,4453.846191,4405.256348,4347.94873,4404.358887,4212.179688,4409.487305
1698668144.802268,0.0,4307.820313,4378.974121,4283.974121,4349.615234,4388.077148,4398.333496,4412.179688,4453.846191,4406.794922,4353.077148,4410.256348,4231.282227,4409.743652
1698668144.810076,0.0,4305.128418,4379.615234,4283.846191,4346.794922,4388.461426,4398.461426,4413.333496,4453.333496,4406.666504,4355.256348,4408.846191,4240.769043,4409.358887
1698668144.817884,0.0,4305.128418,4377.05127,4285.0,4349.102539,4390.128418,4397.307617,4410.128418,4455.128418,4407.692383,4356.153809,4407.05127,4230.128418,4412.179688
1698668144.825692,0.0,4300.0,4376.282227,4277.94873,4346.153809,4391.025879,4396.794922,4411.282227,4456.153809,4407.692383,4354.871582,4404.102539,4208.974121,4411.794922
1698668144.833501,0.0,4304.615234,4375.256348,4277.820313,4343.846191,4391.025879,4397.563965,4412.94873,4453.717773,4407.436035,4354.487305,4404.230957,4203.717773,4410.384766
1698668144.841309,0.0,4310.0,4375.512695,4284.487305,4349.358887,4390.0,4400.512695,4414.230957,4452.820313,4409.358887,4357.94873,4406.538574,4227.436035,4411.410156
1698668144.849117,0.0,4309.358887,4374.487305,4285.897461,4353.205078,4390.128418,4402.692383,4414.487305,4453.077148,4405.641113,4357.563965,4405.128418,4255.0,4413.077148
1698668144.856925,0.0,4310.0,4374.230957,4284.102539,4351.410156,4390.128418,4398.333496,4410.512695,4453.717773,4407.563965,4355.128418,4404.871582,4243.589844,4414.487305
1698668144.864733,0.0,4310.128418,4375.384766,4279.743652,4346.025879,4387.94873,4396.282227,4411.282227,4453.974121,4412.820313,4354.487305,4405.897461,4198.974121,4415.641113
1698668144.872542,0.0,4311.025879,4375.769043,4284.487305,4344.487305,4387.563965,4398.205078,4414.487305,4452.436035,4408.333496,4355.128418,4409.871582,4186.538574,4416.282227
1698668144.88035,0.0,4306.922852,4374.871582,4287.179688,4346.025879,4391.538574,4398.077148,4413.461426,4454.743652,4407.05127,4358.589844,4410.256348,4229.871582,4413.846191
1698668144.888158,0.0,4307.820313,4374.871582,4283.333496,4344.487305,4393.333496,4396.538574,4411.538574,4454.615234,4406.282227,4358.846191,4407.05127,4266.410156,4414.487305
1698668144.895966,0.0,4312.692383,4376.153809,4288.077148,4345.512695,4390.0,4396.666504,4410.769043,4452.820313,4406.666504,4358.974121,4411.538574,4247.436035,4416.666504
1698668144.903775,0.0,4309.743652,4375.769043,4287.05127,4348.846191,4389.230957,4399.358887,4413.205078,4457.307617,4412.436035,4360.769043,4411.666504,4197.563965,4414.743652
1698668144.911583,0.0,4306.025879,4372.94873,4283.589844,4349.743652,4390.897461,4398.077148,4414.871582,4457.436035,4410.897461,4358.333496,4407.307617,4183.717773,4416.410156
1698668144.919391,0.0,4304.230957,4375.384766,4284.615234,4345.897461,4389.487305,4395.384766,4411.153809,4455.0,4408.205078,4358.205078,4410.128418,4226.794922,4418.846191
1698668144.927199,0.0,4306.538574,4381.282227,4283.205078,4343.846191,4388.461426,4396.666504,4411.410156,4455.769043,4410.128418,4361.794922,4412.436035,4261.410156,4417.820313
1698668144.935007,0.0,4306.922852,4377.820313,4286.794922,4347.05127,4389.615234,4399.615234,4415.897461,4455.897461,4409.615234,4363.974121,4410.512695,4243.077148,4415.769043
1698668144.942816,0.0,4303.717773,4374.230957,4286.282227,4348.077148,4390.512695,4400.0,4413.974121,4457.436035,4409.358887,4361.025879,4410.641113,4205.641113,4415.897461
1698668144.950624,0.0,4302.307617,4374.487305,4282.692383,4345.897461,4389.230957,4394.487305,4409.743652,4457.692383,4409.102539,4360.384766,4413.974121,4196.410156,4419.871582
1698668144.958432,0.0,4300.641113,4374.102539,4284.358887,4344.743652,4387.820313,4392.563965,4411.538574,4457.307617,4410.769043,4365.0,4412.05127,4225.384766,4419.743652
1698668144.96624,0.0,4304.871582,4375.128418,4286.666504,4346.282227,4388.333496,4395.769043,4416.794922,4458.205078,4410.384766,4365.641113,4406.922852,4245.769043,4416.922852
1698668144.974049,0.0,4311.410156,4372.692383,4289.102539,4349.871582,4387.94873,4393.589844,4414.871582,4455.897461,4408.333496,4364.871582,4411.922852,4235.897461,4418.974121
1698668144.981857,0.0,4308.846191,4372.820313,4286.153809,4348.077148,4387.05127,4392.05127,4408.974121,4457.563965,4412.05127,4363.717773,4415.256348,4217.563965,4421.666504
1698668144.989665,0.0,4306.922852,4373.461426,4286.794922,4345.0,4388.717773,4395.256348,4408.589844,4459.358887,4411.153809,4359.871582,4410.0,4209.743652,4421.666504
1698668144.997473,0.0,4306.025879,4374.358887,4290.384766,4347.692383,4391.666504,4398.077148,4411.153809,4456.410156,4410.0,4361.153809,4409.358887,4221.410156,4419.358887
1698668145.005281,0.0,4305.512695,4374.871582,4286.025879,4346.025879,4391.153809,4399.487305,4413.846191,4457.94873,4412.820313,4366.410156,4411.538574,4229.102539,4417.436035
1698668145.01309,0.0,4309.358887,4371.410156,4289.871582,4344.358887,4389.358887,4396.538574,4411.153809,4460.0,4410.384766,4366.666504,4410.769043,4229.743652,4420.641113
1698668145.020898,0.0,4305.897461,4371.538574,4290.641113,4347.820313,4388.461426,4396.410156,4409.871582,4459.358887,4409.487305,4364.230957,4407.563965,4226.282227,4422.692383
1698668145.028706,0.0,4305.769043,4371.922852,4286.538574,4346.794922,4388.717773,4400.512695,4413.589844,4458.717773,4409.487305,4362.179688,4406.410156,4222.307617,4417.179688
1698668145.036514,0.0,4309.871582,4373.461426,4289.487305,4347.94873,4391.025879,4399.743652,4410.641113,4460.128418,4410.384766,4365.512695,4408.461426,4230.128418,4415.512695
1698668145.044322,0.0,4303.461426,4376.794922,4286.410156,4349.358887,4391.410156,4395.769043,4408.077148,4463.077148,4412.436035,4366.666504,4406.410156,4225.641113,4418.205078
1698668145.052131,0.0,4304.230957,4373.333496,4288.077148,4348.205078,4390.0,4392.179688,4409.102539,4462.436035,4412.05127,4362.436035,4408.333496,4226.025879,4417.692383
1698668145.059939,0.0,4309.358887,4368.974121,4291.666504,4347.94873,4389.743652,4395.128418,4410.128418,4461.153809,4415.256348,4365.0,4413.589844,4230.769043,4418.077148
1698668145.067747,0.0,4307.436035,4370.128418,4286.666504,4344.102539,4389.487305,4398.846191,4412.692383,4463.077148,4416.282227,4366.025879,4410.128418,4221.025879,4417.820313
1698668145.075555,0.0,4305.384766,4372.563965,4286.538574,4341.922852,4388.205078,4394.615234,4412.179688,4462.563965,4412.05127,4362.820313,4406.410156,4225.256348,4416.538574
1698668145.083364,0.0,4306.282227,4370.512695,4286.666504,4341.282227,4390.384766,4394.230957,4412.436035,4460.0,4412.307617,4362.436035,4407.692383,4223.974121,4416.153809
1698668145.091172,0.0,4310.769043,4368.461426,4289.615234,4343.589844,4390.0,4396.922852,4413.333496,4462.179688,4413.974121,4362.05127,4410.256348,4223.077148,4416.153809
1698668145.09898,0.0,4307.563965,4370.897461,4293.717773,4347.307617,4386.282227,4397.692383,4413.205078,4462.179688,4416.794922,4362.94873,4409.871582,4231.153809,4418.205078
1698668145.106788,0.0,4305.128418,4371.794922,4288.846191,4345.769043,4388.077148,4399.871582,4413.974121,4459.871582,4417.307617,4363.205078,4405.256348,4223.077148,4416.794922
1698668145.114596,0.0,4312.05127,4367.436035,4287.820313,4346.538574,4390.769043,4399.487305,4410.0,4459.230957,4414.615234,4363.717773,4406.025879,4225.897461,4414.487305
1698668145.122405,0.0,4311.666504,4370.128418,4287.307617,4347.94873,4391.025879,4398.333496,4408.461426,4460.0,4417.05127,4365.769043,4406.410156,4226.282227,4415.384766
1698668145.130213,0.0,4310.641113,4372.563965,4288.589844,4347.563965,4390.128418,4398.077148,4410.897461,4463.205078,4419.743652,4365.769043,4408.333496,4222.94873,4416.282227
1698668145.138021,0.0,4312.436035,4370.641113,4291.794922,4346.922852,4388.589844,4398.589844,4410.128418,4464.615234,4421.282227,4366.282227,4412.692383,4228.846191,4414.102539
1698668145.145829,0.0,4312.05127,4374.615234,4288.846191,4344.487305,4390.512695,4399.487305,4410.897461,4463.461426,4420.769043,4366.025879,4410.256348,4221.410156,4412.179688
1698668145.153638,0.0,4310.512695,4372.820313,4291.538574,4343.077148,4391.666504,4398.205078,4413.461426,4461.282227,4418.974121,4365.128418,4410.0,4226.025879,4413.589844
1698668145.161446,0.0,4303.974121,4368.333496,4291.666504,4341.538574,4389.743652,4398.846191,4415.128418,4460.384766,4421.410156,4366.538574,4411.922852,4228.974121,4413.589844
1698668145.169254,0.0,4304.743652,4368.974121,4285.769043,4341.410156,4389.615234,4398.461426,4412.05127,4462.692383,4424.487305,4368.846191,4410.897461,4223.589844,4412.05127
1698668145.177062,0.0,4307.94873,4371.666504,4289.487305,4344.615234,4390.641113,4395.128418,4409.615234,4463.589844,4423.846191,4369.358887,4408.461426,4231.538574,4414.358887
1698668145.18487,0.0,4306.666504,4374.358887,4295.384766,4345.641113,4388.846191,4397.05127,4412.692383,4463.333496,4422.179688,4370.0,4404.358887,4224.487305,4414.615234
1698668145.192679,0.0,4308.846191,4370.512695,4293.461426,4344.487305,4388.077148,4398.846191,4411.922852,4465.128418,4424.230957,4372.179688,4406.282227,4225.641113,4407.05127
1698668145.200487,0.0,4308.205078,4371.025879,4288.077148,4344.487305,4387.820313,4397.563965,4409.358887,4464.743652,4424.358887,4371.666504,4408.974121,4233.077148,4405.897461
1698668145.208295,0.0,4307.179688,4374.102539,4289.871582,4347.05127,4387.05127,4397.05127,4413.846191,4467.179688,4422.820313,4369.871582,4405.256348,4226.153809,4411.025879
1698668145.216103,0.0,4303.846191,4372.563965,4290.0,4348.461426,4388.461426,4398.333496,4415.512695,4472.307617,4426.922852,4373.846191,4404.358887,4230.512695,4408.846191
1698668145.223911,0.0,4303.333496,4373.461426,4284.487305,4345.0,4387.94873,4399.230957,4410.384766,4469.230957,4428.846191,4374.615234,4405.769043,4225.384766,4403.974121
1698668145.23172,0.0,4311.794922,4374.743652,4291.922852,4346.538574,4386.794922,4395.897461,4407.820313,4465.769043,4426.025879,4370.0,4411.025879,4221.153809,4404.487305
1698668145.239528,0.0,4310.641113,4373.589844,4297.179688,4348.846191,4388.333496,4396.922852,4412.436035,4467.820313,4427.05127,4373.077148,4413.205078,4226.282227,4406.410156
1698668145.247336,0.0,4307.692383,4371.922852,4290.769043,4343.589844,4388.205078,4399.487305,4413.846191,4471.153809,4426.794922,4374.743652,4408.333496,4220.641113,4404.358887
1698668145.255144,0.0,4310.897461,4372.94873,4290.512695,4342.307617,4386.666504,4397.05127,4408.077148,4469.871582,4422.179688,4370.897461,4407.820313,4227.05127,4404.871582
1698668145.262953,0.0,4303.846191,4373.846191,4289.487305,4344.230957,4387.436035,4399.358887,4409.615234,4466.794922,4422.563965,4371.282227,4407.307617,4224.487305,4404.871582
1698668145.270761,0.0,4302.820313,4372.05127,4287.563965,4343.205078,4388.205078,4401.153809,4414.358887,4468.333496,4423.333496,4369.102539,4408.461426,4215.769043,4403.717773
1698668145.278569,0.0,4306.025879,4372.307617,4289.743652,4342.563965,4386.922852,4398.461426,4412.05127,4468.974121,4422.307617,4368.846191,4410.384766,4221.410156,4407.05127
1698668145.286377,0.0,4300.769043,4372.307617,4290.128418,4343.589844,4388.717773,4400.128418,4410.512695,4470.128418,4422.179688,4369.871582,4408.974121,4218.846191,4405.641113
1698668145.294186,0.0,4305.512695,4371.153809,4289.615234,4347.179688,4391.922852,4400.769043,4412.563965,4471.153809,4422.563965,4366.922852,4410.128418,4220.769043,4403.205078
1698668145.301994,0.0,4311.794922,4370.0,4282.820313,4346.538574,4391.410156,4398.717773,4413.589844,4471.282227,4424.743652,4368.717773,4408.461426,4218.461426,4402.692383
1698668145.309802,0.0,4311.025879,4368.717773,4282.179688,4344.743652,4388.077148,4399.871582,4410.897461,4473.974121,4422.820313,4366.922852,4406.410156,4217.179688,4401.153809
1698668145.31761,0.0,4308.974121,4368.589844,4286.538574,4345.769043,4387.563965,4400.256348,4409.102539,4473.461426,4421.666504,4364.743652,4407.692383,4226.410156,4401.794922
1698668145.325418,0.0,4307.563965,4373.077148,4283.333496,4344.487305,4389.487305,4400.769043,4411.538574,4470.897461,4423.077148,4367.307617,4406.282227,4217.692383,4401.794922
1698668145.333227,0.0,4310.641113,4375.641113,4287.563965,4344.743652,4389.102539,4399.358887,4411.025879,4471.666504,4420.769043,4367.05127,4406.025879,4218.846191,4399.358887
1698668145.341035,0.0,4308.589844,4373.974121,4288.846191,4345.512695,4389.487305,4397.436035,4411.666504,4472.820313,4420.128418,4367.179688,4407.436035,4220.512695,4396.666504
1698668145.348843,0.0,4305.0,4371.538574,4284.102539,4344.615234,4391.153809,4397.307617,4415.897461,4471.922852,4419.230957,4366.025879,4407.307617,4214.871582,4397.692383
1698668145.356651,0.0,4305.128418,4370.641113,4288.589844,4345.384766,4388.846191,4396.922852,4413.333496,4470.128418,4419.230957,4368.205078,4407.563965,4229.743652,4401.282227
1698668145.364459,0.0,4307.820313,4373.205078,4289.230957,4345.0,4386.538574,4397.436035,4410.384766,4470.769043,4419.487305,4369.358887,4406.538574,4224.102539,4400.769043
1698668145.372268,0.0,4311.410156,4370.512695,4288.589844,4345.256348,4387.563965,4395.0,4409.358887,4473.589844,4419.615234,4365.256348,4406.538574,4212.179688,4397.436035
1698668145.380076,0.0,4308.205078,4368.077148,4285.512695,4345.897461,4389.615234,4395.897461,4408.461426,4474.102539,4425.0,4365.641113,4405.128418,4218.461426,4397.05127
1698668145.387884,0.0,4306.922852,4370.641113,4282.94873,4345.256348,4389.743652,4400.769043,4410.897461,4471.153809,4422.436035,4364.743652,4404.358887,4215.0,4397.436035
1698668145.395692,0.0,4308.333496,4373.205078,4288.333496,4346.410156,4388.974121,4399.871582,4412.307617,4467.692383,4417.563965,4363.077148,4408.205078,4217.05127,4396.410156
1698668145.4035,0.0,4307.179688,4377.307617,4286.153809,4344.743652,4389.102539,4400.897461,4412.05127,4469.487305,4422.692383,4366.153809,4406.538574,4219.487305,4397.179688
1698668145.411309,0.0,4310.128418,4375.256348,4287.307617,4342.563965,4390.641113,4401.025879,4410.0,4471.410156,4421.666504,4365.897461,4405.769043,4219.230957,4398.077148
1698668145.419117,0.0,4310.0,4371.410156,4290.128418,4345.897461,4390.0,4397.05127,4411.153809,4469.230957,4415.897461,4361.794922,4406.153809,4220.128418,4399.871582
1698668145.426925,0.0,4306.666504,4371.922852,4284.743652,4345.256348,4387.05127,4401.410156,4415.384766,4468.974121,4417.307617,4360.769043,4404.487305,4210.641113,4398.205078
1698668145.434734,0.0,4307.692383,4372.820313,4285.769043,4345.0,4386.794922,4406.282227,4413.077148,4467.179688,4419.102539,4365.128418,4405.641113,4212.436035,4396.025879
1698668145.442542,0.0,4305.769043,4373.717773,4285.128418,4346.922852,4389.102539,4404.487305,4410.897461,4465.384766,4416.922852,4366.922852,4401.153809,4227.179688,4399.743652
1698668145.45035,0.0,4305.256348,4370.512695,4285.256348,4344.615234,4388.077148,4402.94873,4413.461426,4466.666504,4415.384766,4362.563965,4400.0,4228.333496,4400.256348
1698668145.458158,0.0,4305.641113,4371.153809,4288.205078,4344.487305,4388.333496,4403.205078,4415.641113,4468.077148,4417.820313,4361.538574,4401.538574,4219.871582,4399.358887
1698668145.465966,0.0,4303.589844,4375.128418,4282.692383,4344.230957,4390.128418,4403.077148,4415.384766,4466.410156,4415.769043,4362.436035,4396.410156,4213.717773,4399.487305
1698668145.473775,0.0,4308.077148,4374.615234,4283.461426,4343.333496,4386.666504,4398.974121,4410.897461,4464.487305,4411.025879,4362.820313,4398.077148,4221.922852,4399.871582
1698668145.481583,0.0,4310.641113,4375.769043,4287.436035,4344.743652,4385.897461,4398.333496,4411.153809,4465.769043,4415.512695,4362.563965,4402.436035,4222.692383,4402.179688
1698668145.489391,0.0,4309.871582,4375.512695,4285.128418,4345.384766,4391.282227,4401.410156,4417.436035,4466.410156,4418.205078,4360.384766,4400.0,4208.974121,4401.410156
1698668145.497199,0.0,4308.717773,4373.846191,4287.563965,4345.897461,4392.563965,4401.025879,4416.410156,4463.974121,4414.871582,4361.410156,4398.461426,4218.589844,4400.256348
1698668145.505007,0.0,4306.282227,4378.077148,4288.333496,4344.487305,4391.282227,4400.769043,4412.05127,4465.512695,4413.589844,4360.769043,4397.179688,4236.025879,4399.102539
1698668145.512816,0.0,4308.717773,4380.0,4288.333496,4344.487305,4391.153809,4398.077148,4412.307617,4470.384766,4415.256348,4358.333496,4400.128418,4229.358887,4397.563965
1698668145.520624,0.0,4305.897461,4376.153809,4288.461426,4345.256348,4388.589844,4396.922852,4413.205078,4467.94873,4416.025879,4360.512695,4401.153809,4219.230957,4402.179688
1698668145.528432,0.0,4305.256348,4374.615234,4283.974121,4345.512695,4386.794922,4400.0,4413.974121,4463.717773,4414.487305,4360.769043,4397.307617,4213.717773,4403.077148
1698668145.53624,0.0,4310.769043,4377.436035,4285.384766,4347.692383,4391.282227,4400.128418,4414.743652,4463.974121,4415.256348,4360.512695,4401.025879,4215.769043,4401.666504
1698668145.544048,0.0,4306.153809,4382.820313,4286.794922,4345.128418,4392.563965,4398.461426,4416.282227,4464.871582,4416.282227,4358.077148,4401.282227,4225.769043,4403.461426
1698668145.551857,0.0,4302.94873,4380.769043,4287.692383,4344.102539,4387.820313,4399.358887,4414.743652,4465.512695,4415.0,4354.358887,4397.563965,4227.05127,4401.538574
1698668145.559665,0.0,4307.436035,4375.0,4288.974121,4346.410156,4387.94873,4401.410156,4413.333496,4461.794922,4411.410156,4356.025879,4400.128418,4218.205078,4402.436035
1698668145.567473,0.0,4311.153809,4376.153809,4286.153809,4344.615234,4392.563965,4401.666504,4415.641113,4460.0,4410.128418,4357.692383,4401.410156,4210.128418,4404.871582
1698668145.575281,0.0,4308.461426,4378.589844,4287.692383,4344.487305,4393.205078,4401.282227,4413.974121,4461.666504,4411.922852,4356.025879,4400.897461,4216.794922,4402.820313
1698668145.583089,0.0,4302.563965,4379.230957,4286.922852,4344.743652,4391.153809,4401.282227,4414.102539,4460.384766,4407.820313,4353.333496,4400.769043,4229.615234,4401.666504
1698668145.590898,0.0,4306.666504,4376.666504,4286.410156,4343.333496,4391.282227,4398.461426,4415.256348,4459.871582,4405.256348,4353.333496,4401.410156,4221.666504,4402.436035
1698668145.598706,0.0,4311.922852,4375.512695,4287.436035,4345.384766,4391.282227,4398.077148,4411.538574,4459.743652,4409.487305,4355.0,4401.794922,4214.487305,4406.153809
1698668145.606514,0.0,4307.05127,4375.512695,4283.205078,4346.025879,4388.846191,4401.025879,4412.820313,4459.615234,4410.128418,4354.871582,4400.128418,4223.846191,4408.461426
1698668145.614323,0.0,4303.077148,4374.487305,4285.128418,4344.358887,4389.102539,4398.589844,4413.333496,4460.256348,4408.077148,4355.384766,4400.897461,4231.666504,4405.128418
1698668145.622131,0.0,4301.922852,4379.230957,4288.717773,4344.487305,4392.05127,4396.538574,4412.820313,4459.743652,4408.461426,4354.230957,4403.717773,4217.692383,4405.256348
1698668145.629939,0.0,4302.94873,4380.0,4285.512695,4347.05127,4392.820313,4399.358887,4415.512695,4457.436035,4411.282227,4357.05127,4404.230957,4192.692383,4406.666504
1698668145.637747,0.0,4302.436035,4375.384766,4283.333496,4347.436035,4391.153809,4400.128418,4416.282227,4453.846191,4411.794922,4360.897461,4403.461426,4208.077148,4405.128418
1698668145.645555,0.0,4300.769043,4375.512695,4282.179688,4344.487305,4391.666504,4400.512695,4415.0,4456.538574,4408.589844,4356.025879,4400.384766,4248.333496,4405.897461
1698668145.653364,0.0,4306.153809,4376.666504,4283.846191,4346.282227,4392.307617,4401.153809,4413.333496,4459.230957,4408.461426,4353.846191,4401.025879,4250.384766,4407.692383
1698668145.661172,0.0,4307.563965,4375.384766,4283.205078,4347.820313,4390.512695,4400.0,4413.974121,4455.256348,4407.692383,4354.102539,4404.487305,4211.025879,4407.692383
1698668145.66898,0.0,4305.769043,4375.128418,4283.846191,4346.025879,4390.384766,4398.846191,4414.358887,4457.307617,4405.128418,4351.025879,4404.743652,4187.05127,4407.692383
1698668145.676788,0.0,4305.256348,4377.692383,4289.487305,4349.358887,4390.128418,4398.461426,4412.820313,4461.410156,4404.358887,4352.307617,4405.769043,4213.589844,4407.563965
1698668145.684596,0.0,4302.307617,4380.128418,4287.307617,4349.615234,4389.358887,4398.846191,4415.128418,4454.358887,4402.820313,4354.487305,4404.487305,4241.538574,4407.179688
1698668145.692405,0.0,4303.846191,4380.256348,4283.461426,4347.05127,4389.230957,4397.820313,4414.743652,4450.0,4404.615234,4353.205078,4402.94873,4239.487305,4407.436035
1698668145.700213,0.0,4304.615234,4377.563965,4283.333496,4347.179688,4390.769043,4398.974121,4412.179688,4455.0,4406.666504,4351.794922,4403.077148,4224.358887,4407.05127
1698668145.708021,0.0,4306.794922,4375.256348,4284.487305,4348.974121,4391.025879,4399.358887,4413.077148,4455.769043,4403.461426,4353.077148,4403.974121,4204.487305,4407.563965
1698668145.715829,0.0,4311.794922,4374.615234,4286.666504,4350.769043,4390.384766,4396.410156,4413.589844,4455.769043,4405.256348,4356.538574,4407.05127,4212.179688,4410.897461
1698668145.723637,0.0,4308.589844,4373.589844,4281.025879,4346.666504,4392.05127,4398.077148,4413.589844,4458.589844,4408.333496,4354.102539,4402.94873,4233.717773,4411.410156
1698668145.731446,0.0,4307.563965,4373.461426,4280.769043,4345.769043,4392.436035,4399.743652,4412.94873,4455.384766,4405.0,4352.179688,4401.025879,4238.461426,4411.153809
1698668145.739254,0.0,4306.025879,4376.282227,4284.871582,4348.333496,4390.0,4399.487305,4413.717773,4452.179688,4403.974121,4355.641113,4408.333496,4224.230957,4411.025879
1698668145.747062,0.0,4303.461426,4378.077148,4283.461426,4346.282227,4389.102539,4400.128418,4415.897461,4453.846191,4405.897461,4354.487305,4407.692383,4205.256348,4409.871582
1698668145.75487,0.0,4308.846191,4376.666504,4285.384766,4348.077148,4390.128418,4397.436035,4413.589844,4455.384766,4406.025879,4356.025879,4402.692383,4209.358887,4411.538574
1698668145.762679,0.0,4310.769043,4380.512695,4282.820313,4349.102539,4391.025879,4397.820313,4412.05127,4454.487305,4407.436035,4361.666504,4404.230957,4231.025879,4411.794922
1698668145.770487,0.0,4307.307617,4378.974121,4286.666504,4347.05127,4390.512695,4399.358887,4413.717773,4453.589844,4407.179688,4359.102539,4408.846191,4240.641113,4411.538574
1698668145.778295,0.0,4303.589844,4372.94873,4292.820313,4349.358887,4390.128418,4397.436035,4414.102539,4453.974121,4408.333496,4355.128418,4408.077148,4230.897461,4414.487305
1698668145.786103,0.0,4305.0,4376.666504,4283.846191,4351.025879,4390.769043,4397.563965,4414.102539,4454.102539,4406.922852,4354.743652,4404.230957,4211.666504,4414.102539
1698668145.793912,0.0,4307.307617,4377.94873,4282.94873,4348.974121,4390.769043,4396.794922,4414.743652,4452.692383,4404.102539,4356.025879,4408.077148,4205.0,4411.153809
1698668145.80172,0.0,4303.077148,4374.615234,4285.641113,4346.922852,4391.410156,4395.897461,4416.538574,4455.769043,4407.179688,4356.794922,4408.974121,4221.794922,4411.025879
1698668145.809528,0.0,4303.717773,4374.358887,4284.743652,4345.512695,4390.641113,4394.487305,4415.128418,4457.436035,4405.256348,4354.358887,4406.025879,4241.666504,4413.974121
1698668145.817336,0.0,4304.871582,4376.410156,4287.563965,4344.487305,4390.384766,4393.205078,4412.820313,4453.974121,4405.256348,4358.205078,4408.846191,4232.563965,4417.307617
1698668145.825144,0.0,4303.589844,4376.666504,4283.077148,4345.641113,4392.179688,4397.436035,4415.897461,4453.974121,4409.615234,4361.794922,4406.922852,4206.922852,4416.922852
1698668145.832953,0.0,4309.230957,4372.563965,4282.307617,4347.692383,4390.769043,4399.358887,4415.512695,4455.897461,4407.692383,4358.589844,4404.615234,4206.794922,4414.743652
1698668145.840761,0.0,4311.410156,4374.871582,4286.538574,4346.282227,4387.692383,4397.436035,4412.436035,4456.922852,4410.0,4358.589844,4403.333496,4228.974121,4414.615234
1698668145.848569,0.0,4308.589844,4374.230957,4285.512695,4343.589844,4388.333496,4396.282227,4413.589844,4454.743652,4411.282227,4361.025879,4403.461426,4245.769043,4418.717773
1698668145.856377,0.0,4309.615234,4373.717773,4288.589844,4347.179688,4391.410156,4396.025879,4413.589844,4453.461426,4408.589844,4362.05127,4410.641113,4240.128418,4420.256348
1698668145.864185,0.0,4308.205078,4377.692383,4288.205078,4349.487305,4393.205078,4398.717773,4414.871582,4457.05127,4410.256348,4361.153809,4412.05127,4208.717773,4419.358887
1698668145.871994,0.0,4305.897461,4375.256348,4283.333496,4346.538574,4393.333496,4398.205078,4414.743652,4456.025879,4410.641113,4359.102539,4409.743652,4196.410156,4419.487305
1698668145.879802,0.0,4303.589844,4373.589844,4282.820313,4345.384766,4390.641113,4394.102539,4410.897461,4453.846191,4410.256348,4357.307617,4411.025879,4228.974121,4416.922852
1698668145.88761,0.0,4305.641113,4369.871582,4284.487305,4343.974121,4390.128418,4394.615234,4413.461426,4456.794922,4407.94873,4357.307617,4408.846191,4249.102539,4418.717773
1698668145.895418,0.0,4307.563965,4368.205078,4290.256348,4345.256348,4391.410156,4397.179688,4415.0,4457.179688,4407.563965,4361.794922,4407.307617,4230.641113,4424.615234
1698668145.903227,0.0,4305.641113,4373.974121,4287.94873,4346.794922,4388.461426,4397.179688,4412.179688,4455.897461,4410.897461,4365.256348,4408.205078,4212.94873,4422.563965
1698668145.911035,0.0,4311.025879,4372.563965,4283.589844,4347.05127,4386.025879,4393.974121,4412.563965,4456.538574,4409.871582,4364.615234,4410.128418,4219.102539,4419.743652
1698668145.918843,0.0,4310.256348,4370.128418,4289.743652,4347.179688,4387.563965,4394.102539,4411.538574,4459.102539,4410.0,4365.897461,4410.897461,4231.794922,4423.589844
1698668145.926651,0.0,4304.743652,4373.205078,4288.846191,4344.358887,4388.846191,4396.922852,4409.871582,4459.487305,4409.615234,4364.102539,4406.282227,4232.563965,4422.436035
1698668145.934459,0.0,4308.846191,4372.820313,4283.205078,4345.512695,4388.717773,4396.922852,4411.282227,4457.563965,4407.436035,4362.692383,4406.666504,4227.563965,4419.358887
1698668145.942268,0.0,4309.743652,4371.153809,4281.025879,4346.153809,4391.538574,4396.410156,4412.563965,4457.94873,4410.512695,4365.512695,4412.692383,4223.589844,4421.410156
1698668145.950076,0.0,4307.563965,4373.333496,4284.487305,4345.128418,4392.563965,4395.0,4410.769043,4457.692383,4411.538574,4365.0,4410.769043,4224.743652,4421.794922
1698668145.957884,0.0,4305.0,4372.05127,4287.05127,4346.410156,4389.743652,4394.358887,4409.230957,4458.717773,4410.384766,4365.0,4403.717773,4229.358887,4419.615234
1698668145.965692,0.0,4306.282227,4371.025879,4284.358887,4346.794922,4389.102539,4395.641113,4411.025879,4462.563965,4411.410156,4367.692383,4405.512695,4221.922852,4417.94873
1698668145.973501,0.0,4310.641113,4371.153809,4285.256348,4347.436035,4389.615234,4395.128418,4410.512695,4461.410156,4410.512695,4367.179688,4412.307617,4227.05127,4417.692383
1698668145.981309,0.0,4307.307617,4371.666504,4286.025879,4347.436035,4391.025879,4393.717773,4409.102539,4460.512695,4411.282227,4364.487305,4408.717773,4228.717773,4417.436035
1698668145.989117,0.0,4307.563965,4375.128418,4290.0,4347.563965,4391.922852,4397.692383,4412.563965,4460.897461,4413.077148,4363.717773,4404.487305,4220.512695,4417.05127
1698668145.996925,0.0,4309.871582,4372.179688,4290.256348,4348.461426,4389.871582,4401.025879,4414.102539,4458.846191,4416.025879,4365.769043,4408.461426,4227.179688,4416.666504
1698668146.004733,0.0,4306.410156,4368.846191,4283.461426,4345.897461,4389.358887,4398.974121,4412.94873,4460.769043,4418.461426,4365.641113,4409.102539,4222.94873,4416.025879
1698668146.012542,0.0,4309.102539,4370.128418,4287.692383,4346.153809,4390.0,4396.153809,4411.153809,4463.333496,4415.128418,4366.025879,4410.0,4226.153809,4415.256348
1698668146.02035,0.0,4313.589844,4370.128418,4287.563965,4347.820313,4389.358887,4397.692383,4412.436035,4462.692383,4415.128418,4366.666504,4412.820313,4231.666504,4416.153809
1698668146.028158,0.0,4310.641113,4368.333496,4286.282227,4346.410156,4390.512695,4398.717773,4413.717773,4462.692383,4419.871582,4363.846191,4410.128418,4219.871582,4414.102539
1698668146.035966,0.0,4309.102539,4367.563965,4295.384766,4345.0,4391.410156,4398.846191,4409.871582,4462.820313,4420.641113,4364.871582,4407.05127,4221.025879,4411.794922
1698668146.043774,0.0,4310.641113,4372.05127,4294.102539,4344.615234,4388.333496,4402.307617,4409.743652,4463.974121,4419.487305,4369.743652,4408.205078,4217.820313,4413.717773
1698668146.051583,0.0,4309.743652,4372.692383,4288.333496,4344.615234,4387.179688,4398.205078,4412.307617,4465.384766,4420.897461,4369.358887,4413.333496,4220.512695,4411.538574
1698668146.059391,0.0,4305.512695,4371.666504,4287.307617,4345.128418,4389.743652,4395.128418,4413.974121,4466.410156,4422.94873,4368.461426,4414.743652,4229.871582,4408.717773
1698668146.067199,0.0,4308.589844,4371.666504,4288.333496,4343.717773,4390.256348,4399.487305,4414.871582,4466.410156,4422.05127,4370.0,4409.871582,4224.102539,4407.94873
1698668146.075007,0.0,4313.077148,4367.563965,4290.897461,4344.615234,4387.436035,4398.461426,4411.794922,4463.461426,4421.666504,4370.512695,4408.461426,4228.461426,4409.230957
1698668146.082816,0.0,4307.820313,4366.025879,4290.897461,4346.410156,4388.846191,4398.589844,4412.563965,4462.05127,4424.743652,4370.641113,4408.846191,4225.384766,4409.871582
1698668146.090624,0.0,4308.461426,4370.769043,4289.487305,4344.871582,4391.666504,4400.128418,4414.358887,4467.692383,4426.922852,4373.461426,4409.102539,4222.436035,4408.461426
1698668146.098432,0.0,4311.794922,4375.256348,4287.563965,4344.358887,4390.769043,4399.230957,4413.717773,4469.743652,4425.384766,4375.128418,4408.589844,4229.230957,4409.615234
1698668146.10624,0.0,4311.538574,4371.922852,4288.717773,4346.282227,4390.0,4401.025879,4412.692383,4466.922852,4422.179688,4371.282227,4406.794922,4221.410156,4409.743652
1698668146.114048,0.0,4311.538574,4368.589844,4292.563965,4347.179688,4391.153809,4399.871582,4410.256348,4468.589844,4423.717773,4372.436035,4409.487305,4226.666504,4407.94873
1698668146.121857,0.0,4306.153809,4371.794922,4288.846191,4344.358887,4390.256348,4398.205078,4411.794922,4468.974121,4425.128418,4377.05127,4408.974121,4227.94873,4406.410156
1698668146.129665,0.0,4307.692383,4371.922852,4286.666504,4343.077148,4387.563965,4399.871582,4412.820313,4468.717773,4423.846191,4372.94873,4406.922852,4220.0,4407.563965
1698668146.137473,0.0,4310.384766,4371.666504,4290.0,4344.871582,4388.974121,4400.512695,4410.128418,4470.641113,4428.077148,4371.153809,4408.205078,4226.282227,4410.512695
1698668146.145281,0.0,4307.05127,4372.436035,4290.128418,4342.692383,4392.05127,4398.205078,4413.077148,4473.333496,4430.512695,4374.743652,4407.820313,4221.922852,4409.230957
1698668146.15309,0.0,4308.589844,4372.436035,4292.692383,4342.820313,4392.820313,4395.0,4416.025879,4473.077148,4424.743652,4371.153809,4411.922852,4223.846191,4406.922852
1698668146.160898,0.0,4307.05127,4373.589844,4290.128418,4345.256348,4392.692383,4396.794922,4412.05127,4469.743652,4423.333496,4370.512695,4412.820313,4226.153809,4404.871582
1698668146.168706,0.0,4307.436035,4372.563965,4285.897461,4345.128418,4390.897461,4399.358887,4409.743652,4473.333496,4425.128418,4372.94873,4408.846191,4219.102539,4403.461426
1698668146.176514,0.0,4309.358887,4371.538574,4293.077148,4344.615234,4389.487305,4397.563965,4411.922852,4473.717773,4423.461426,4370.512695,4410.512695,4225.256348,4404.230957
1698668146.184322,0.0,4305.512695,4373.333496,4291.922852,4343.717773,4389.230957,4397.94873,4414.358887,4470.897461,4421.410156,4367.820313,4408.717773,4219.871582,4403.717773
1698668146.192131,0.0,4307.820313,4372.307617,4285.512695,4344.615234,4391.025879,4398.589844,4414.615234,4477.05127,4421.794922,4368.461426,4407.820313,4218.589844,4403.333496
1698668146.199939,0.0,4305.897461,4373.077148,4284.743652,4343.461426,4391.410156,4397.820313,4413.974121,4476.666504,4425.384766,4374.615234,4410.384766,4226.025879,4403.589844
1698668146.207747,0.0,4304.230957,4372.692383,4285.897461,4342.820313,4388.846191,4398.333496,4413.077148,4471.666504,4424.615234,4373.333496,4410.641113,4220.897461,4402.05127
1698668146.215555,0.0,4310.512695,4370.0,4288.333496,4347.563965,4388.974121,4399.230957,4411.922852,4472.94873,4422.563965,4368.333496,4408.461426,4222.563965,4403.205078
1698668146.223364,0.0,4309.871582,4373.333496,4286.666504,4346.153809,4391.538574,4401.410156,4413.077148,4473.077148,4423.717773,4370.512695,4405.128418,4216.922852,4403.717773
1698668146.231172,0.0,4307.436035,4373.589844,4286.025879,4342.307617,4391.153809,4401.922852,4413.333496,4472.563965,4421.666504,4367.307617,4407.820313,4215.897461,4400.256348
1698668146.23898,0.0,4308.333496,4371.794922,4285.256348,4345.128418,4388.205078,4400.128418,4410.512695,4473.205078,4420.897461,4366.282227,4411.538574,4222.692383,4397.94873
1698668146.246788,0.0,4308.077148,4373.077148,4283.974121,4343.077148,4386.666504,4400.512695,4410.512695,4471.153809,4421.025879,4368.846191,4408.846191,4217.05127,4398.846191
1698668146.254596,0.0,4309.871582,4370.0,4289.230957,4343.077148,4387.820313,4398.077148,4411.153809,4469.615234,4420.0,4366.794922,4406.025879,4222.820313,4400.128418
1698668146.262405,0.0,4309.102539,4369.871582,4287.820313,4350.0,4391.153809,4396.410156,4412.179688,4470.384766,4419.871582,4365.769043,4406.153809,4221.410156,4398.717773
1698668146.270213,0.0,4305.641113,4373.717773,4285.0,4348.846191,4391.922852,4398.974121,4413.205078,4467.436035,4416.282227,4366.538574,4405.128418,4212.94873,4397.692383
1698668146.278021,0.0,4305.512695,4376.538574,4287.307617,4344.743652,4389.615234,4399.743652,4411.410156,4465.256348,4415.384766,4367.692383,4403.589844,4219.487305,4399.358887
1698668146.285829,0.0,4306.538574,4377.179688,4286.794922,4345.128418,4389.230957,4399.743652,4412.179688,4468.589844,4418.077148,4367.94873,4405.384766,4218.717773,4399.487305
1698668146.293637,0.0,4307.179688,4371.922852,4288.077148,4345.128418,4390.769043,4401.282227,4412.820313,4469.358887,4415.512695,4365.256348,4405.641113,4217.692383,4397.179688
1698668146.301446,0.0,4308.974121,4370.769043,4285.769043,4344.871582,4392.307617,4401.282227,4411.410156,4467.820313,4413.974121,4362.563965,4398.717773,4223.589844,4400.128418
1698668146.309254,0.0,4309.871582,4376.410156,4285.0,4346.410156,4392.179688,4400.256348,4411.153809,4467.820313,4416.922852,4362.179688,4398.461426,4223.333496,4401.153809
1698668146.317062,0.0,4307.94873,4374.743652,4287.307617,4347.307617,4388.846191,4398.974121,4413.589844,4467.05127,4417.307617,4362.692383,4404.102539,4219.743652,4398.077148
1698668146.32487,0.0,4306.794922,4371.025879,4280.128418,4345.256348,4387.820313,4399.230957,4416.538574,4463.974121,4413.974121,4362.563965,4400.641113,4215.384766,4399.102539
1698668146.332679,0.0,4307.05127,4373.846191,4280.384766,4345.641113,4389.743652,4399.487305,4414.102539,4461.794922,4413.205078,4361.153809,4398.205078,4214.871582,4399.871582
1698668146.340487,0.0,4305.512695,4374.230957,4288.077148,4348.205078,4389.743652,4398.077148,4412.94873,4465.769043,4415.512695,4360.384766,4398.589844,4226.282227,4401.538574
1698668146.348295,0.0,4306.282227,4373.589844,4285.512695,4346.282227,4388.333496,4398.846191,4415.769043,4469.230957,4415.256348,4360.128418,4397.563965,4226.794922,4401.282227
1698668146.356103,0.0,4308.333496,4376.794922,4284.230957,4343.974121,4386.410156,4400.128418,4414.615234,4465.769043,4413.333496,4361.282227,4399.871582,4218.589844,4400.512695
1698668146.363912,0.0,4308.461426,4376.410156,4286.922852,4344.102539,4387.179688,4399.743652,4412.563965,4462.820313,4412.692383,4358.589844,4397.820313,4222.179688,4403.077148
1698668146.37172,0.0,4311.666504,4376.282227,4288.846191,4345.897461,4392.179688,4397.820313,4412.94873,4464.615234,4413.589844,4356.922852,4396.538574,4226.922852,4402.820313
1698668146.379528,0.0,4312.820313,4377.820313,4285.897461,4345.384766,4391.922852,4397.179688,4413.589844,4465.769043,4413.974121,4361.025879,4398.974121,4222.820313,4400.256348
1698668146.387336,0.0,4311.922852,4376.538574,4282.179688,4344.102539,4388.205078,4399.230957,4415.0,4466.153809,4411.025879,4360.128418,4396.922852,4210.512695,4398.589844
1698668146.395144,0.0,4312.820313,4374.358887,4289.230957,4346.153809,4389.230957,4399.102539,4416.025879,4462.05127,4410.641113,4358.205078,4397.05127,4210.128418,4402.05127
1698668146.402953,0.0,4307.05127,4376.282227,4291.538574,4344.615234,4391.410156,4399.615234,4417.05127,4456.025879,4412.436035,4357.307617,4403.974121,4230.0,4405.384766
1698668146.410761,0.0,4304.615234,4378.077148,4288.589844,4343.077148,4389.102539,4399.743652,4416.666504,4459.743652,4410.0,4355.512695,4406.410156,4245.897461,4401.922852
1698668146.418569,0.0,4306.794922,4375.512695,4287.563965,4345.384766,4387.692383,4400.512695,4414.358887,4462.307617,4407.820313,4357.05127,4400.897461,4229.487305,4402.563965
1698668146.426377,0.0,4306.282227,4376.410156,4285.256348,4346.794922,4388.974121,4403.461426,4416.410156,4456.025879,4409.102539,4357.563965,4399.615234,4191.538574,4406.538574
1698668146.434185,0.0,4306.666504,4378.461426,4287.820313,4348.461426,4390.384766,4399.487305,4416.025879,4453.077148,4412.05127,4357.05127,4404.487305,4194.358887,4405.0
1698668146.441994,0.0,4307.05127,4377.436035,4286.794922,4346.538574,4392.436035,4398.717773,4412.692383,4459.615234,4411.410156,4355.769043,4402.820313,4239.743652,4405.128418
1698668146.449802,0.0,4307.692383,4374.615234,4283.461426,4345.769043,4391.922852,4403.205078,4413.205078,4463.589844,4409.230957,4355.897461,4400.384766,4261.153809,4406.794922
1698668146.45761,0.0,4305.384766,4376.410156,4283.333496,4348.846191,4391.410156,4401.666504,4413.205078,4457.307617,4409.230957,4357.307617,4403.205078,4233.461426,4405.769043
1698668146.465418,0.0,4302.94873,4380.641113,4282.94873,4347.436035,4391.922852,4400.128418,4412.94873,4456.025879,4407.692383,4355.897461,4401.794922,4191.025879,4406.153809
1698668146.473226,0.0,4307.05127,4376.153809,4287.820313,4346.666504,4390.256348,4401.153809,4413.589844,4459.743652,4407.820313,4357.179688,4403.205078,4188.717773,4407.94873
1698668146.481035,0.0,4306.282227,4374.358887,4288.974121,4347.563965,4390.256348,4401.922852,4415.256348,4456.410156,4406.794922,4358.461426,4406.282227,4232.436035,4409.358887
1698668146.488843,0.0,4304.102539,4375.641113,4285.128418,4345.384766,4392.94873,4402.05127,4414.743652,4455.512695,4405.769043,4355.641113,4402.692383,4263.077148,4408.461426
1698668146.496651,0.0,4304.102539,4376.794922,4287.563965,4345.641113,4392.05127,4399.230957,4412.436035,4457.179688,4409.358887,4353.974121,4401.410156,4238.717773,4407.563965
1698668146.50446,0.0,4301.153809,4379.615234,4285.256348,4345.769043,4388.333496,4398.974121,4414.743652,4456.153809,4407.563965,4352.820313,4401.025879,4195.512695,4407.692383
1698668146.512268,0.0,4304.615234,4374.230957,4283.333496,4345.128418,4390.0,4402.436035,4413.717773,4456.922852,4402.563965,4353.461426,4402.05127,4187.05127,4407.307617
1698668146.520076,0.0,4306.410156,4375.256348,4287.692383,4346.666504,4393.333496,4401.794922,4411.922852,4457.94873,4402.436035,4353.205078,4402.94873,4225.769043,4409.487305
1698668146.527884,0.0,4302.436035,4381.153809,4286.410156,4344.743652,4393.717773,4397.94873,4415.641113,4456.922852,4405.384766,4351.666504,4401.025879,4259.358887,4409.487305
1698668146.535692,0.0,4303.461426,4379.487305,4286.538574,4343.461426,4391.538574,4397.94873,4413.974121,4456.025879,4405.512695,4351.794922,4405.0,4241.025879,4408.717773
1698668146.543501,0.0,4302.94873,4378.717773,4288.205078,4345.641113,4388.717773,4400.128418,4411.025879,4456.025879,4402.94873,4349.871582,4405.256348,4201.538574,4409.230957
1698668146.551309,0.0,4304.743652,4377.563965,4289.230957,4348.077148,4389.743652,4398.717773,4414.102539,4457.05127,4403.589844,4350.0,4401.666504,4191.666504,4407.820313
1698668146.559117,0.0,4306.410156,4374.487305,4289.230957,4348.717773,4392.436035,4399.743652,4415.769043,4455.384766,4405.128418,4352.820313,4404.743652,4222.179688,4407.692383
1698668146.566925,0.0,4303.461426,4377.05127,4283.333496,4346.025879,4392.05127,4402.94873,4413.846191,4451.922852,4403.974121,4351.922852,4405.128418,4251.153809,4408.974121
1698668146.574733,0.0,4305.256348,4378.077148,4283.205078,4348.717773,4389.102539,4399.871582,4411.153809,4452.179688,4404.487305,4350.256348,4403.589844,4243.333496,4410.256348
1698668146.582542,0.0,4306.794922,4371.666504,4285.769043,4349.871582,4388.205078,4396.922852,4411.538574,4451.666504,4405.769043,4350.256348,4405.256348,4210.641113,4410.128418
1698668146.59035,0.0,4308.974121,4372.692383,4285.769043,4347.05127,4389.487305,4398.846191,4413.846191,4449.487305,4404.358887,4353.205078,4407.94873,4187.692383,4412.307617
1698668146.598158,0.0,4308.589844,4376.282227,4285.641113,4349.871582,4391.025879,4399.743652,4414.615234,4452.307617,4407.307617,4356.922852,4410.769043,4216.922852,4414.102539
1698668146.605966,0.0,4303.589844,4376.794922,4282.436035,4347.820313,4391.794922,4397.692383,4413.846191,4453.077148,4411.153809,4354.743652,4408.717773,4258.974121,4412.94873
1698668146.613774,0.0,4305.641113,4379.230957,4286.410156,4342.692383,4391.282227,4397.563965,4412.692383,4451.922852,4409.230957,4355.0,4406.538574,4250.641113,4413.846191
1698668146.621583,0.0,4308.205078,4377.692383,4289.615234,4347.179688,4391.538574,4401.410156,4413.589844,4453.205078,4408.205078,4358.717773,4409.230957,4213.333496,4413.333496
1698668146.629391,0.0,4306.153809,4375.128418,4285.769043,4351.410156,4392.307617,4399.871582,4413.461426,4453.589844,4407.563965,4355.897461,4410.512695,4186.025879,4413.461426
1698668146.637199,0.0,4303.589844,4375.641113,4283.461426,4344.358887,4390.897461,4396.538574,4411.538574,4454.871582,4407.94873,4356.794922,4407.820313,4204.743652,4415.384766
1698668146.645007,0.0,4303.461426,4377.563965,4285.384766,4342.692383,4389.743652,4399.358887,4412.563965,4455.128418,4407.436035,4358.461426,4407.436035,4252.692383,4418.589844
1698668146.652815,0.0,4308.461426,4376.282227,4289.230957,4349.487305,4390.897461,4400.512695,4411.922852,4451.666504,4405.384766,4357.307617,4410.897461,4264.230957,4418.205078
1698668146.660624,0.0,4310.512695,4375.897461,4282.05127,4348.461426,4393.205078,4398.333496,4411.282227,4454.487305,4408.589844,4359.743652,4409.102539,4217.05127,4413.205078
1698668146.668432,0.0,4307.307617,4375.256348,4280.769043,4346.922852,4392.563965,4396.794922,4412.94873,4456.025879,4408.077148,4359.615234,4407.307617,4174.358887,4416.666504
1698668146.67624,0.0,4305.0,4373.589844,4289.615234,4347.307617,4390.641113,4396.025879,4413.205078,4453.846191,4407.05127,4359.487305,4409.871582,4204.487305,4419.358887
1698668146.684049,0.0,4306.922852,4377.94873,4286.410156,4342.94873,4391.153809,4397.692383,4413.461426,4455.641113,4410.641113,4359.358887,4407.94873,4253.846191,4415.897461
1698668146.691857,0.0,4309.871582,4375.641113,4284.102539,4343.205078,4389.871582,4396.538574,4411.410156,4454.230957,4409.102539,4358.205078,4410.641113,4253.717773,4417.820313
1698668146.699665,0.0,4307.436035,4369.743652,4286.153809,4346.282227,4389.743652,4392.307617,4407.307617,4454.358887,4409.615234,4360.897461,4416.153809,4218.717773,4419.102539
1698668146.707473,0.0,4305.897461,4370.641113,4285.256348,4345.512695,4392.94873,4393.589844,4408.717773,4454.743652,4410.128418,4363.717773,4409.358887,4192.94873,4418.333496
1698668146.715281,0.0,4305.769043,4372.307617,4288.717773,4346.153809,4389.743652,4396.410156,4411.922852,4454.358887,4409.230957,4362.94873,4403.974121,4208.589844,4418.846191
1698668146.72309,0.0,4304.615234,4372.94873,4289.615234,4346.538574,4386.025879,4398.205078,4410.641113,4458.974121,4410.0,4361.025879,4407.94873,4241.025879,4419.358887
1698668146.730898,0.0,4306.538574,4371.025879,4287.820313,4345.769043,4390.256348,4398.846191,4409.743652,4456.794922,4406.922852,4361.538574,4411.666504,4245.897461,4421.282227
1698668146.738706,0.0,4305.897461,4371.153809,4288.589844,4347.563965,4392.05127,4396.153809,4410.512695,4455.769043,4407.179688,4363.461426,4410.641113,4224.358887,4421.922852
1698668146.746514,0.0,4306.794922,4375.641113,4287.179688,4346.153809,4389.743652,4396.282227,4410.641113,4459.615234,4408.846191,4364.358887,4407.307617,4212.563965,4420.769043
1698668146.754322,0.0,4309.743652,4373.974121,4287.179688,4346.025879,4389.743652,4397.94873,4409.487305,4457.692383,4406.666504,4363.846191,4408.974121,4222.563965,4420.384766
1698668146.762131,0.0,4306.025879,4368.589844,4287.307617,4345.769043,4389.871582,4396.282227,4409.615234,4456.025879,4409.102539,4364.743652,4410.897461,4230.384766,4418.717773
1698668146.769939,0.0,4307.692383,4369.615234,4288.333496,4342.94873,4390.384766,4394.743652,4410.512695,4457.179688,4411.025879,4365.641113,4409.102539,4231.025879,4417.563965
1698668146.777747,0.0,4310.0,4371.666504,4290.384766,4344.743652,4390.897461,4397.436035,4411.666504,4457.692383,4409.615234,4365.0,4408.717773,4227.307617,4418.589844
1698668146.785555,0.0,4304.358887,4370.128418,4285.512695,4345.512695,4391.410156,4398.461426,4413.205078,4458.589844,4410.0,4362.94873,4407.307617,4218.589844,4418.333496
1698668146.793363,0.0,4308.205078,4368.974121,4285.0,4347.820313,4390.897461,4395.384766,4410.256348,4458.589844,4412.05127,4363.077148,4411.153809,4224.230957,4420.0
1698668146.801172,0.0,4311.538574,4371.538574,4286.794922,4348.974121,4387.692383,4397.692383,4408.846191,4459.230957,4411.666504,4365.384766,4414.487305,4227.94873,4421.410156
1698668146.80898,0.0,4305.384766,4373.077148,4287.436035,4345.897461,4387.179688,4398.974121,4410.512695,4461.794922,4409.230957,4364.102539,4409.615234,4225.769043,4419.743652
1698668146.816788,0.0,4304.102539,4368.846191,4290.128418,4346.025879,4389.615234,4396.666504,4408.974121,4461.282227,4411.153809,4364.871582,4409.102539,4233.974121,4418.974121
1698668146.824596,0.0,4310.641113,4367.820313,4287.307617,4345.897461,4388.717773,4399.102539,4410.256348,4461.538574,4413.589844,4365.256348,4409.743652,4224.615234,4418.333496
1698668146.832405,0.0,4313.974121,4369.871582,4290.128418,4344.487305,4386.666504,4400.0,4409.743652,4461.666504,4411.794922,4364.102539,4408.461426,4220.256348,4418.846191
1698668146.840213,0.0,4307.94873,4369.358887,4290.897461,4343.846191,4388.589844,4398.974121,4406.666504,4459.615234,4415.512695,4367.94873,4406.282227,4225.512695,4419.487305
1698668146.848021,0.0,4309.871582,4367.179688,4282.563965,4344.871582,4388.461426,4398.974121,4410.897461,4460.769043,4416.538574,4367.563965,4405.641113,4221.025879,4419.230957
1698668146.855829,0.0,4313.589844,4367.436035,4284.230957,4346.153809,4386.666504,4397.179688,4413.077148,4461.538574,4413.461426,4365.256348,4410.641113,4228.846191,4419.743652
1698668146.863638,0.0,4308.333496,4371.922852,4288.974121,4345.512695,4389.487305,4397.94873,4410.769043,4460.256348,4413.589844,4364.615234,4410.384766,4225.512695,4417.94873
1698668146.871446,0.0,4312.563965,4369.487305,4291.410156,4346.794922,4390.641113,4398.461426,4413.205078,4459.871582,4413.205078,4363.205078,4407.436035,4223.205078,4414.743652
1698668146.879254,0.0,4313.846191,4367.05127,4291.025879,4347.436035,4387.820313,4398.333496,4414.615234,4459.615234,4416.410156,4365.512695,4408.461426,4228.974121,4415.897461
1698668146.887062,0.0,4308.717773,4369.230957,4289.743652,4345.256348,4386.282227,4398.589844,4413.717773,4460.769043,4417.692383,4367.307617,4408.589844,4221.922852,4417.05127
1698668146.89487,0.0,4310.641113,4368.589844,4292.307617,4346.025879,4386.025879,4395.897461,4413.077148,4464.102539,4416.282227,4365.512695,4407.05127,4227.307617,4412.563965
1698668146.902679,0.0,4311.410156,4371.025879,4290.128418,4345.897461,4387.307617,4396.666504,4412.179688,4465.384766,4420.512695,4365.897461,4405.384766,4224.615234,4410.384766
1698668146.910487,0.0,4310.897461,4371.282227,4288.717773,4344.743652,4388.974121,4398.333496,4410.512695,4465.897461,4421.538574,4368.461426,4407.179688,4220.256348,4415.512695
1698668146.918295,0.0,4312.563965,4369.358887,4290.0,4347.307617,4388.333496,4399.230957,4410.641113,4466.666504,4417.94873,4368.205078,4409.487305,4227.692383,4417.307617
1698668146.926103,0.0,4312.94873,4368.717773,4289.358887,4346.794922,4387.563965,4401.153809,4412.563965,4465.897461,4417.436035,4365.769043,4408.333496,4222.307617,4412.436035
1698668146.933911,0.0,4310.256348,4368.077148,4291.410156,4344.871582,4388.589844,4397.436035,4411.922852,4465.512695,4419.615234,4365.256348,4409.487305,4226.410156,4411.666504
1698668146.94172,0.0,4307.307617,4367.94873,4292.820313,4343.461426,4390.512695,4395.128418,4411.794922,4463.846191,4420.897461,4368.974121,4410.0,4226.666504,4413.974121
1698668146.949528,0.0,4311.538574,4367.563965,4291.025879,4341.153809,4390.128418,4398.974121,4411.794922,4465.0,4421.410156,4372.436035,4409.358887,4223.205078,4411.025879
1698668146.957336,0.0,4313.077148,4370.769043,4286.794922,4344.358887,4388.717773,4398.717773,4411.794922,4470.256348,4422.692383,4373.717773,4409.358887,4233.205078,4407.179688
1698668146.965144,0.0,4307.307617,4374.743652,4285.384766,4347.179688,4390.128418,4396.922852,4411.922852,4471.794922,4424.615234,4372.820313,4408.077148,4226.666504,4408.717773
1698668146.972952,0.0,4308.717773,4371.666504,4289.743652,4344.487305,4391.410156,4399.871582,4410.384766,4469.358887,4425.641113,4372.820313,4410.641113,4223.717773,4410.384766
1698668146.980761,0.0,4311.410156,4368.077148,4291.538574,4345.256348,4390.0,4399.743652,4410.769043,4466.282227,4425.641113,4375.0,4409.615234,4224.230957,4407.563965
1698668146.988569,0.0,4307.563965,4371.025879,4288.717773,4348.333496,4389.743652,4394.487305,4409.743652,4466.410156,4426.282227,4373.333496,4406.153809,4221.025879,4404.487305
1698668146.996377,0.0,4304.358887,4373.717773,4285.769043,4346.538574,4388.717773,4395.256348,4409.358887,4468.717773,4426.025879,4372.820313,4409.615234,4228.717773,4405.384766
1698668147.004185,0.0,4306.410156,4375.897461,4285.384766,4344.487305,4387.436035,4402.05127,4413.333496,4468.974121,4423.974121,4372.563965,4413.205078,4223.846191,4404.871582
1698668147.011994,0.0,4312.307617,4374.487305,4292.94873,4346.666504,4389.358887,4401.282227,4414.615234,4469.230957,4424.615234,4368.974121,4412.820313,4223.461426,4401.922852
1698668147.019802,0.0,4309.615234,4371.153809,4292.436035,4345.641113,4389.358887,4397.820313,4412.820313,4470.769043,4427.563965,4371.794922,4410.769043,4227.563965,4404.358887
1698668147.02761,0.0,4307.820313,4375.641113,4287.94873,4343.205078,4387.692383,4399.487305,4410.641113,4473.717773,4424.743652,4373.205078,4412.05127,4220.641113,4406.794922
1698668147.035418,0.0,4310.769043,4372.94873,4293.333496,4345.897461,4391.153809,4398.974121,4410.641113,4470.641113,4421.282227,4368.974121,4411.538574,4222.692383,4402.307617
1698668147.043227,0.0,4307.05127,4370.128418,4291.025879,4344.871582,4392.563965,4398.974121,4414.102539,4468.205078,4424.487305,4370.384766,4405.256348,4217.563965,4398.461426
1698668147.051035,0.0,4305.769043,4375.0,4287.563965,4343.717773,4388.205078,4400.128418,4412.436035,4474.230957,4422.692383,4370.641113,4407.692383,4220.128418,4401.025879
1698668147.058843,0.0,4307.05127,4373.077148,4289.615234,4345.641113,4388.205078,4398.717773,4410.256348,4473.974121,4421.153809,4368.461426,4412.307617,4228.974121,4401.025879
1698668147.066651,0.0,4306.794922,4372.563965,4290.769043,4342.94873,4391.153809,4398.205078,4412.179688,4471.922852,4424.358887,4367.05127,4411.282227,4217.692383,4401.282227
1698668147.074459,0.0,4307.307617,4374.487305,4291.282227,4342.05127,4387.94873,4397.692383,4409.615234,4476.153809,4424.487305,4367.563965,4412.436035,4221.666504,4402.179688
1698668147.082268,0.0,4306.410156,4371.922852,4285.384766,4343.974121,4388.717773,4399.102539,4410.256348,4474.102539,4421.410156,4368.974121,4408.717773,4224.102539,4397.05127
1698668147.090076,0.0,4310.384766,4368.846191,4287.307617,4346.794922,4391.666504,4399.871582,4413.589844,4469.743652,4419.102539,4366.410156,4407.179688,4216.282227,4396.666504
1698668147.097884,0.0,4311.153809,4371.410156,4292.307617,4346.282227,4388.846191,4398.974121,4410.769043,4472.563965,4423.717773,4366.153809,4411.282227,4220.256348,4400.897461
1698668147.105692,0.0,4307.436035,4375.769043,4286.794922,4342.692383,4389.358887,4399.871582,4411.282227,4474.615234,4426.282227,4366.538574,4407.820313,4214.230957,4399.230957
1698668147.1135,0.0,4310.384766,4372.692383,4288.461426,4345.0,4392.820313,4398.846191,4412.563965,4469.615234,4422.436035,4365.641113,4406.282227,4215.897461,4398.205078
1698668147.121309,0.0,4310.0,4370.0,4292.94873,4346.666504,4390.128418,4399.230957,4412.94873,4469.358887,4422.692383,4366.794922,4406.794922,4218.461426,4400.641113
1698668147.129117,0.0,4309.871582,4370.641113,4290.769043,4343.205078,4387.05127,4399.871582,4412.820313,4473.077148,4421.794922,4363.846191,4404.743652,4212.436035,4398.205078
1698668147.136925,0.0,4311.153809,4375.897461,4289.102539,4345.641113,4387.94873,4396.666504,4408.077148,4471.410156,4418.846191,4363.589844,4404.871582,4222.563965,4396.410156
1698668147.144733,0.0,4306.794922,4378.846191,4285.0,4347.179688,4388.205078,4397.179688,4409.230957,4470.384766,4416.794922,4366.410156,4403.077148,4226.410156,4397.563965
1698668147.152542,0.0,4307.94873,4373.974121,4289.743652,4342.692383,4387.436035,4399.358887,4413.077148,4468.461426,4415.769043,4362.436035,4404.615234,4219.487305,4398.589844
1698668147.16035,0.0,4310.384766,4374.615234,4289.230957,4341.538574,4387.05127,4398.461426,4413.205078,4464.102539,4418.077148,4362.05127,4408.077148,4220.128418,4400.128418
1698668147.168158,0.0,4308.974121,4375.0,4282.179688,4341.538574,4388.717773,4399.871582,4414.743652,4465.128418,4418.077148,4365.512695,4405.512695,4224.230957,4396.922852
1698668147.175966,0.0,4307.563965,4375.256348,4290.0,4344.358887,4389.615234,4402.05127,4413.077148,4467.436035,4414.615234,4364.358887,4400.641113,4223.077148,4397.563965
1698668147.183774,0.0,4305.897461,4377.179688,4291.410156,4347.307617,4388.205078,4401.666504,4413.846191,4466.410156,4412.94873,4361.410156,4397.820313,4208.077148,4401.282227
1698668147.191583,0.0,4308.333496,4374.230957,4287.692383,4348.077148,4388.077148,4398.974121,4414.487305,4466.666504,4415.256348,4361.666504,4403.205078,4206.025879,4398.846191
1698668147.199391,0.0,4307.692383,4374.871582,4286.922852,4349.358887,4388.974121,4399.871582,4411.153809,4468.846191,4419.615234,4363.717773,4405.897461,4227.179688,4400.897461
1698668147.207199,0.0,4304.615234,4376.025879,4282.820313,4347.05127,4388.589844,4405.641113,4412.94873,4469.230957,4418.077148,4361.538574,4399.743652,4230.0,4401.410156
1698668147.215007,0.0,4304.871582,4376.410156,4287.179688,4345.641113,4386.794922,4404.615234,4415.128418,4467.692383,4415.641113,4361.410156,4402.307617,4222.179688,4400.0
1698668147.222816,0.0,4303.333496,4379.102539,4287.436035,4346.538574,4387.307617,4399.871582,4413.461426,4466.153809,4416.025879,4363.974121,4404.358887,4219.358887,4401.794922
1698668147.230624,0.0,4308.077148,4375.897461,4285.128418,4347.307617,4388.333496,4399.615234,4415.641113,4465.769043,4411.538574,4362.307617,4399.743652,4212.820313,4399.102539
1698668147.238432,0.0,4310.512695,4374.230957,4291.922852,4346.025879,4388.077148,4402.692383,4417.436035,4463.974121,4410.897461,4360.769043,4397.436035,4216.410156,4400.0
1698668147.24624,0.0,4307.94873,4376.666504,4292.179688,4343.077148,4388.589844,4404.615234,4414.230957,4464.230957,4415.769043,4357.436035,4397.436035,4225.769043,4399.743652
1698668147.254048,0.0,4310.128418,4375.256348,4290.641113,4344.615234,4390.256348,4401.538574,4411.922852,4464.743652,4417.05127,4357.05127,4400.256348,4225.769043,4397.179688
1698668147.261857,0.0,4308.846191,4375.897461,4291.922852,4345.641113,4390.769043,4401.153809,4414.230957,4463.461426,4414.358887,4359.871582,4399.487305,4221.794922,4402.563965
1698668147.269665,0.0,4308.717773,4375.512695,4290.0,4343.205078,4388.974121,4402.94873,4415.384766,4463.974121,4411.410156,4359.102539,4397.820313,4215.641113,4402.307617
1698668147.277473,0.0,4309.102539,4372.820313,4286.922852,4344.615234,4386.410156,4401.794922,4415.256348,4465.769043,4415.256348,4358.846191,4401.666504,4218.846191,4399.743652
1698668147.285281,0.0,4307.563965,4377.307617,4284.230957,4344.487305,4385.256348,4402.436035,4417.05127,4466.153809,4417.692383,4357.94873,4402.563965,4226.538574,4400.512695
1698668147.29309,0.0,4308.717773,4378.333496,4285.769043,4344.230957,4388.461426,4402.436035,4416.025879,4463.333496,4413.717773,4357.820313,4401.282227,4230.769043,4400.384766
1698668147.300898,0.0,4304.358887,4375.256348,4286.538574,4345.769043,4391.282227,4402.94873,4414.358887,4462.820313,4412.179688,4358.461426,4401.538574,4226.025879,4402.563965
1698668147.308706,0.0,4304.487305,4377.436035,4286.153809,4344.615234,4390.512695,4402.820313,4414.487305,4466.922852,4413.589844,4356.025879,4397.692383,4211.794922,4401.922852
1698668147.316514,0.0,4308.333496,4380.0,4285.128418,4342.820313,4391.025879,4399.358887,4412.179688,4465.769043,4413.333496,4356.153809,4394.358887,4216.666504,4400.897461
1698668147.324322,0.0,4304.230957,4379.487305,4282.179688,4343.846191,4392.179688,4399.871582,4413.205078,4463.077148,4409.871582,4356.410156,4397.820313,4232.563965,4402.692383
1698668147.332131,0.0,4300.512695,4379.358887,4284.871582,4347.692383,4391.666504,4400.769043,4413.846191,4463.077148,4409.102539,4355.897461,4403.589844,4230.512695,4402.563965
1698668147.339939,0.0,4302.692383,4380.384766,4286.153809,4346.025879,4389.487305,4399.615234,4414.102539,4461.538574,4409.615234,4357.436035,4402.436035,4221.666504,4403.461426
1698668147.347747,0.0,4307.307617,4379.358887,4284.230957,4342.436035,4387.692383,4399.743652,4415.769043,4461.666504,4409.358887,4357.179688,4398.461426,4213.205078,4404.102539
1698668147.355555,0.0,4306.538574,4378.077148,4286.025879,4343.974121,4389.102539,4400.512695,4412.436035,4460.512695,4410.128418,4356.410156,4401.410156,4215.256348,4403.589844
1698668147.363363,0.0,4300.769043,4377.05127,4285.128418,4343.974121,4392.563965,4401.794922,4412.05127,4455.512695,4405.128418,4355.384766,4402.179688,4227.563965,4405.128418
1698668147.371172,0.0,4305.0,4375.256348,4285.128418,4345.641113,4392.179688,4400.128418,4414.230957,4458.077148,4403.205078,4356.282227,4402.05127,4230.256348,4406.410156
1698668147.37898,0.0,4309.871582,4376.282227,4286.922852,4347.179688,4388.974121,4398.846191,4412.692383,4461.922852,4408.846191,4356.922852,4404.358887,4221.794922,4406.922852
1698668147.386788,0.0,4304.487305,4377.820313,4286.282227,4344.871582,4388.205078,4401.153809,4412.94873,4456.794922,4411.922852,4356.538574,4403.846191,4211.410156,4406.666504
1698668147.394596,0.0,4303.205078,4379.615234,4289.615234,4346.025879,4388.846191,4400.0,4414.871582,4454.615234,4411.410156,4356.153809,4405.256348,4214.487305,4405.512695
1698668147.402405,0.0,4304.487305,4381.282227,4285.897461,4348.333496,4389.487305,4397.94873,4416.282227,4458.589844,4406.410156,4349.871582,4405.769043,4223.846191,4406.538574
1698668147.410213,0.0,4305.128418,4379.102539,4281.666504,4349.487305,4390.0,4397.692383,4417.179688,4458.717773,4404.358887,4351.025879,4403.974121,4226.282227,4406.538574
1698668147.418021,0.0,4306.153809,4377.05127,4285.769043,4350.641113,4389.102539,4397.820313,4417.436035,4455.256348,4407.94873,4358.717773,4404.102539,4224.358887,4405.641113
1698668147.425829,0.0,4305.641113,4376.538574,4284.358887,4348.974121,4388.846191,4399.871582,4415.0,4452.563965,4409.102539,4355.641113,4403.205078,4216.538574,4406.922852
1698668147.433638,0.0,4307.692383,4375.128418,4285.512695,4350.128418,4390.512695,4398.717773,4410.128418,4451.538574,4406.282227,4353.589844,4404.102539,4216.922852,4409.230957
1698668147.441446,0.0,4305.384766,4378.077148,4287.563965,4349.358887,4391.282227,4397.692383,4412.692383,4450.384766,4403.205078,4353.717773,4405.256348,4226.666504,4410.128418
1698668147.449254,0.0,4307.307617,4378.846191,4284.743652,4345.128418,4389.358887,4398.461426,4416.666504,4451.666504,4405.512695,4351.922852,4404.743652,4230.128418,4408.717773
1698668147.457062,0.0,4311.282227,4375.897461,4284.102539,4347.692383,4389.358887,4398.461426,4412.563965,4453.974121,4408.333496,4355.128418,4404.743652,4228.077148,4410.512695
1698668147.46487,0.0,4307.436035,4375.0,4281.538574,4349.615234,4392.05127,4399.230957,4412.307617,4455.128418,4406.538574,4355.769043,4403.205078,4222.563965,4412.307617
1698668147.472679,0.0,4307.05127,4371.410156,4285.256348,4345.512695,4392.307617,4398.974121,4417.563965,4452.94873,4405.256348,4353.333496,4405.0,4215.512695,4409.743652
1698668147.480487,0.0,4306.666504,4372.307617,4287.94873,4343.461426,4391.282227,4400.128418,4415.769043,4450.384766,4406.666504,4355.256348,4405.0,4222.307617,4409.102539
1698668147.488295,0.0,4303.717773,4377.307617,4281.538574,4345.641113,4391.410156,4399.487305,4413.077148,4451.538574,4404.358887,4356.538574,4401.282227,4235.641113,4411.153809
1698668147.496103,0.0,4300.769043,4376.666504,4279.102539,4348.205078,4390.641113,4395.897461,4415.256348,4452.563965,4405.384766,4356.922852,4404.743652,4232.436035,4411.922852
1698668147.503911,0.0,4300.512695,4378.333496,4280.0,4346.794922,4389.615234,4398.077148,4416.666504,4451.922852,4407.307617,4355.641113,4407.436035,4212.05127,4409.743652
1698668147.51172,0.0,4304.102539,4377.563965,4286.025879,4347.692383,4388.461426,4399.230957,4411.666504,4450.769043,4402.179688,4353.589844,4407.692383,4201.538574,4411.410156
1698668147.519528,0.0,4301.153809,4374.743652,4286.538574,4351.666504,4388.717773,4396.666504,4410.384766,4448.846191,4406.666504,4355.384766,4407.94873,4220.384766,4413.846191
1698668147.527336,0.0,4304.487305,4376.282227,4280.512695,4350.128418,4390.256348,4396.410156,4416.666504,4450.897461,4410.769043,4354.102539,4403.461426,4239.487305,4411.538574
1698668147.535144,0.0,4310.256348,4377.692383,4283.974121,4345.384766,4390.128418,4396.666504,4413.974121,4452.307617,4408.077148,4355.897461,4405.384766,4236.025879,4411.922852
1698668147.542952,0.0,4302.436035,4376.794922,4283.589844,4341.922852,4389.487305,4397.179688,4411.538574,4453.717773,4409.358887,4360.256348,4409.358887,4214.871582,4415.128418
1698668147.550761,0.0,4303.717773,4373.846191,4283.846191,4343.205078,4389.871582,4395.384766,4414.743652,4454.102539,4406.538574,4357.179688,4406.538574,4201.922852,4417.307617
1698668147.558569,0.0,4312.179688,4374.230957,4286.794922,4346.922852,4390.384766,4394.871582,4414.743652,4451.794922,4406.410156,4356.922852,4407.05127,4220.769043,4417.05127
1698668147.566377,0.0,4310.512695,4374.871582,4283.461426,4345.897461,4391.282227,4398.333496,4413.846191,4452.94873,4408.589844,4359.487305,4412.179688,4239.615234,4417.179688
1698668147.574185,0.0,4310.769043,4375.512695,4288.333496,4346.410156,4389.743652,4397.05127,4412.05127,4455.641113,4406.025879,4358.077148,4413.974121,4232.307617,4416.922852
1698668147.581994,0.0,4310.512695,4376.153809,4289.743652,4347.179688,4388.205078,4395.512695,4414.871582,4455.384766,4408.077148,4358.077148,4407.692383,4217.563965,4413.846191
1698668147.589802,0.0,4309.487305,4373.333496,4286.282227,4344.487305,4389.487305,4395.769043,4417.94873,4452.820313,4410.897461,4359.871582,4408.333496,4209.230957,4416.794922
1698668147.59761,0.0,4310.256348,4373.974121,4290.0,4346.282227,4389.871582,4394.743652,4413.974121,4453.589844,4410.512695,4361.922852,4414.102539,4217.05127,4420.512695
