type,marker_value,duration,timestamp
phase_Sitting_on_the_chair_in_nature,recording_eyes_closed,8.003424,1698668245.58295
Timestamp,EEG.AF3,EEG.F7,EEG.F3,EEG.FC5,EEG.T7,EEG.P7,EEG.O1,EEG.O2,EEG.P8,EEG.T8,EEG.FC6,EEG.F4,EEG.F8,EEG.AF4
1698668245.58295,0.0,4319.487305,4378.717773,4298.846191,4357.563965,4398.974121,4407.94873,4419.230957,4480.128418,4425.769043,4372.05127,4418.974121,4262.820313,4412.692383
1698668245.590758,0.0,4317.692383,4383.461426,4293.589844,4355.641113,4401.153809,4410.769043,4422.692383,4476.410156,4429.743652,4377.307617,4416.025879,4202.436035,4413.333496
1698668245.598566,0.0,4319.871582,4384.615234,4291.153809,4351.025879,4399.230957,4410.0,4422.820313,4481.153809,4425.128418,4372.820313,4419.615234,4187.820313,4411.666504
1698668245.606374,0.0,4315.769043,4384.743652,4297.307617,4353.717773,4399.230957,4408.461426,4420.384766,4482.820313,4425.769043,4373.974121,4421.666504,4245.0,4413.461426
1698668245.614182,0.0,4312.94873,4386.794922,4295.128418,4352.436035,4400.897461,4409.230957,4423.205078,4477.692383,4430.384766,4375.384766,4416.666504,4279.615234,4414.487305
1698668245.621991,0.0,4320.512695,4380.512695,4299.230957,4354.615234,4398.205078,4406.922852,4420.384766,4475.0,4430.0,4371.922852,4421.153809,4267.563965,4412.05127
1698668245.629799,0.0,4320.0,4383.589844,4290.512695,4354.358887,4397.179688,4409.230957,4421.153809,4480.384766,4428.974121,4372.94873,4421.410156,4205.256348,4413.205078
1698668245.637607,0.0,4324.358887,4384.358887,4290.641113,4350.641113,4398.974121,4407.692383,4421.538574,4483.974121,4423.974121,4376.025879,4420.384766,4172.94873,4414.358887
1698668245.645415,0.0,4322.05127,4382.05127,4297.820313,4352.820313,4399.230957,4405.128418,4416.025879,4478.205078,4426.538574,4377.692383,4421.538574,4237.05127,4414.487305
1698668245.653223,0.0,4313.077148,4383.846191,4289.102539,4352.94873,4398.333496,4410.128418,4420.897461,4478.589844,4431.025879,4371.666504,4415.128418,4294.358887,4413.846191
1698668245.661032,0.0,4316.153809,4378.846191,4291.538574,4353.846191,4397.436035,4407.94873,4426.153809,4483.333496,4428.717773,4372.94873,4419.358887,4280.641113,4413.717773
1698668245.66884,0.0,4312.94873,4383.974121,4291.922852,4353.077148,4398.077148,4407.94873,4423.717773,4482.307617,4429.487305,4379.615234,4422.820313,4207.820313,4415.0
1698668245.676648,0.0,4314.743652,4386.666504,4294.102539,4353.205078,4399.358887,4410.128418,4420.0,4478.461426,4428.846191,4375.256348,4420.128418,4163.974121,4414.615234
1698668245.684456,0.0,4319.615234,4382.94873,4300.897461,4356.666504,4399.230957,4407.436035,4422.692383,4477.307617,4431.922852,4373.846191,4419.871582,4225.769043,4414.871582
1698668245.692264,0.0,4315.897461,4387.05127,4291.666504,4352.563965,4398.205078,4409.230957,4429.487305,4481.282227,4432.563965,4373.717773,4416.153809,4288.333496,4413.589844
1698668245.700073,0.0,4320.256348,4382.179688,4292.692383,4352.05127,4399.102539,4407.94873,4422.94873,4483.077148,4428.205078,4373.589844,4419.102539,4282.563965,4410.256348
1698668245.707881,0.0,4317.692383,4381.794922,4295.384766,4354.743652,4402.179688,4408.205078,4420.256348,4481.410156,4428.461426,4375.769043,4418.717773,4215.769043,4412.820313
1698668245.715689,0.0,4316.153809,4383.077148,4294.615234,4351.922852,4401.538574,4408.717773,4425.128418,4480.0,4425.769043,4373.589844,4418.077148,4168.589844,4415.384766
1698668245.723497,0.0,4320.769043,4377.436035,4295.641113,4351.538574,4399.230957,4404.487305,4422.179688,4480.641113,4427.692383,4376.025879,4423.589844,4228.461426,4413.333496
1698668245.731305,0.0,4315.512695,4382.563965,4288.589844,4351.153809,4399.871582,4407.563965,4421.794922,4482.179688,4428.717773,4375.897461,4417.436035,4277.94873,4413.589844
1698668245.739114,0.0,4317.563965,4381.538574,4299.230957,4353.589844,4397.179688,4407.436035,4422.563965,4485.128418,4424.743652,4376.025879,4420.0,4271.922852,4416.153809
1698668245.746922,0.0,4315.769043,4379.230957,4300.128418,4353.974121,4393.974121,4406.666504,4423.846191,4483.461426,4432.05127,4381.666504,4423.077148,4234.358887,4416.538574
1698668245.75473,0.0,4313.077148,4385.384766,4288.846191,4351.153809,4396.538574,4408.589844,4427.05127,4479.230957,4432.436035,4374.871582,4414.615234,4186.666504,4414.230957
1698668245.762539,0.0,4318.589844,4384.102539,4297.179688,4357.05127,4398.846191,4405.897461,4423.589844,4481.794922,4428.846191,4371.922852,4420.641113,4220.128418,4413.717773
1698668245.770347,0.0,4316.410156,4383.461426,4292.692383,4356.282227,4401.025879,4409.230957,4421.666504,4483.205078,4431.025879,4373.974121,4422.436035,4263.846191,4412.692383
1698668245.778155,0.0,4319.230957,4383.846191,4294.102539,4351.282227,4401.922852,4405.384766,4423.461426,4481.666504,4429.358887,4369.743652,4419.102539,4271.794922,4410.512695
1698668245.785963,0.0,4318.846191,4384.358887,4301.153809,4352.820313,4399.615234,4400.769043,4424.358887,4482.692383,4431.538574,4372.820313,4421.794922,4243.846191,4415.128418
1698668245.793771,0.0,4316.025879,4383.717773,4292.05127,4353.461426,4398.589844,4408.974121,4426.025879,4481.666504,4430.641113,4372.05127,4419.230957,4186.153809,4416.153809
1698668245.80158,0.0,4321.025879,4379.487305,4295.897461,4355.256348,4397.179688,4410.128418,4422.05127,4478.077148,4428.461426,4370.897461,4421.025879,4206.153809,4410.769043
1698668245.809388,0.0,4318.589844,4385.384766,4296.666504,4354.487305,4395.512695,4407.05127,4421.410156,4479.615234,4431.153809,4376.025879,4418.846191,4260.641113,4413.077148
1698668245.817196,0.0,4321.794922,4382.820313,4297.563965,4355.128418,4396.794922,4406.025879,4422.436035,4483.205078,4428.589844,4375.0,4418.333496,4273.333496,4417.563965
1698668245.825004,0.0,4321.794922,4376.922852,4299.871582,4357.307617,4398.205078,4407.307617,4419.871582,4482.179688,4429.230957,4373.717773,4421.666504,4244.230957,4414.871582
1698668245.832812,0.0,4317.307617,4383.846191,4292.179688,4351.666504,4398.717773,4409.615234,4420.128418,4481.282227,4428.205078,4371.282227,4415.897461,4192.820313,4410.512695
1698668245.840621,0.0,4325.128418,4380.641113,4299.230957,4353.333496,4399.230957,4403.717773,4418.589844,4480.128418,4425.897461,4372.307617,4419.615234,4209.487305,4414.743652
1698668245.848429,0.0,4320.897461,4382.692383,4298.974121,4354.102539,4399.358887,4403.333496,4421.794922,4478.846191,4430.512695,4378.077148,4421.410156,4255.0,4420.256348
1698668245.856237,0.0,4316.794922,4386.794922,4292.692383,4348.717773,4400.0,4408.077148,4423.974121,4481.153809,4427.820313,4375.128418,4417.307617,4265.897461,4414.743652
1698668245.864045,0.0,4320.769043,4381.666504,4293.974121,4352.692383,4401.153809,4407.692383,4419.230957,4482.820313,4428.717773,4375.0,4419.615234,4249.743652,4412.436035
1698668245.871853,0.0,4320.384766,4383.461426,4288.846191,4353.589844,4401.025879,4410.0,4422.692383,4481.025879,4432.692383,4376.922852,4417.05127,4205.897461,4416.282227
1698668245.879662,0.0,4322.436035,4381.282227,4298.461426,4351.153809,4397.179688,4408.205078,4422.563965,4479.358887,4428.333496,4377.436035,4419.615234,4211.282227,4413.974121
1698668245.88747,0.0,4317.94873,4380.897461,4300.769043,4351.282227,4396.282227,4407.179688,4417.94873,4480.256348,4429.615234,4377.436035,4420.0,4250.0,4414.230957
1698668245.895278,0.0,4319.230957,4381.666504,4291.153809,4351.666504,4401.282227,4409.102539,4420.641113,4480.897461,4429.871582,4370.256348,4415.128418,4257.692383,4415.384766
1698668245.903086,0.0,4323.333496,4380.641113,4296.666504,4355.384766,4400.512695,4403.461426,4421.153809,4479.743652,4427.436035,4372.179688,4417.179688,4248.846191,4413.205078
1698668245.910895,0.0,4316.666504,4384.615234,4293.589844,4352.307617,4397.179688,4403.461426,4421.538574,4479.615234,4427.94873,4376.410156,4414.230957,4210.128418,4413.205078
1698668245.918703,0.0,4322.436035,4381.153809,4295.256348,4351.538574,4398.461426,4406.153809,4420.512695,4477.05127,4428.846191,4374.871582,4417.179688,4203.077148,4415.0
1698668245.926511,0.0,4324.230957,4383.077148,4296.410156,4353.846191,4401.282227,4407.05127,4419.615234,4476.794922,4431.282227,4377.307617,4421.538574,4244.102539,4416.666504
1698668245.934319,0.0,4319.358887,4385.256348,4291.538574,4349.615234,4401.153809,4409.102539,4422.692383,4481.794922,4427.05127,4373.589844,4416.282227,4257.05127,4415.128418
1698668245.942128,0.0,4323.461426,4377.94873,4302.692383,4352.179688,4399.102539,4407.05127,4419.358887,4479.743652,4425.512695,4374.102539,4421.153809,4250.384766,4415.128418
1698668245.949936,0.0,4319.615234,4382.436035,4293.461426,4354.102539,4399.230957,4408.717773,4420.384766,4474.615234,4430.512695,4377.692383,4420.897461,4220.769043,4416.538574
1698668245.957744,0.0,4320.641113,4385.128418,4288.974121,4352.563965,4399.102539,4408.589844,4422.94873,4479.743652,4428.077148,4373.717773,4418.717773,4210.897461,4414.358887
1698668245.965552,0.0,4321.410156,4381.025879,4300.769043,4353.205078,4398.974121,4406.153809,4420.897461,4483.717773,4429.615234,4377.307617,4423.846191,4240.128418,4418.846191
1698668245.97336,0.0,4317.307617,4383.461426,4294.102539,4350.641113,4399.871582,4408.846191,4422.563965,4480.0,4429.615234,4379.487305,4419.743652,4243.846191,4418.205078
1698668245.981169,0.0,4322.563965,4381.025879,4295.128418,4354.230957,4399.102539,4406.410156,4419.487305,4481.410156,4427.692383,4378.461426,4421.282227,4243.333496,4410.512695
1698668245.988977,0.0,4315.769043,4383.846191,4293.717773,4354.615234,4397.436035,4407.05127,4419.871582,4483.974121,4431.410156,4378.974121,4421.153809,4233.461426,4413.846191
1698668245.996785,0.0,4316.282227,4383.974121,4293.717773,4351.282227,4397.05127,4409.230957,4424.358887,4481.666504,4428.589844,4376.666504,4417.820313,4223.717773,4415.0
1698668246.004593,0.0,4324.487305,4377.820313,4298.589844,4353.717773,4398.205078,4406.666504,4421.794922,4479.230957,4429.743652,4378.461426,4421.666504,4242.820313,4412.307617
1698668246.012401,0.0,4320.0,4382.94873,4290.769043,4352.94873,4400.0,4409.743652,4424.102539,4478.846191,4429.358887,4372.94873,4420.0,4235.769043,4411.410156
1698668246.02021,0.0,4320.512695,4382.692383,4298.333496,4354.743652,4399.615234,4409.615234,4424.487305,4481.410156,4426.666504,4370.897461,4423.846191,4235.641113,4412.94873
1698668246.028018,0.0,4318.333496,4383.846191,4299.230957,4355.0,4398.717773,4408.077148,4420.384766,4483.205078,4431.794922,4377.94873,4422.563965,4235.128418,4417.820313
1698668246.035826,0.0,4321.153809,4387.563965,4292.820313,4353.461426,4398.846191,4406.922852,4421.666504,4481.025879,4427.94873,4373.846191,4415.897461,4221.153809,4413.589844
1698668246.043634,0.0,4323.333496,4383.461426,4297.94873,4356.025879,4397.307617,4403.461426,4422.05127,4479.615234,4426.410156,4374.487305,4420.897461,4241.282227,4412.820313
1698668246.051443,0.0,4314.615234,4386.025879,4292.563965,4353.333496,4398.077148,4409.615234,4421.922852,4479.743652,4428.333496,4376.538574,4419.230957,4239.102539,4416.410156
1698668246.059251,0.0,4317.820313,4383.077148,4294.615234,4353.974121,4399.615234,4409.102539,4419.615234,4479.358887,4428.205078,4375.128418,4419.615234,4231.538574,4415.128418
1698668246.067059,0.0,4316.794922,4383.333496,4294.615234,4356.410156,4398.077148,4404.487305,4420.128418,4480.897461,4432.307617,4379.358887,4420.128418,4235.897461,4415.384766
1698668246.074867,0.0,4315.512695,4388.461426,4291.410156,4353.589844,4397.05127,4407.307617,4423.333496,4481.282227,4427.563965,4375.512695,4414.230957,4227.692383,4414.487305
1698668246.082675,0.0,4320.128418,4383.846191,4297.436035,4354.615234,4398.717773,4404.358887,4420.256348,4480.0,4426.410156,4373.974121,4420.256348,4239.871582,4417.05127
1698668246.090484,0.0,4315.897461,4388.461426,4290.512695,4354.230957,4400.769043,4406.666504,4421.025879,4480.0,4432.692383,4376.153809,4420.769043,4231.922852,4418.974121
1698668246.098292,0.0,4320.256348,4388.974121,4295.384766,4353.974121,4398.077148,4408.461426,4420.897461,4479.102539,4429.743652,4374.102539,4417.820313,4222.05127,4415.0
1698668246.1061,0.0,4323.077148,4381.153809,4302.05127,4355.769043,4395.384766,4403.717773,4420.384766,4481.153809,4430.0,4376.025879,4421.666504,4239.230957,4415.769043
1698668246.113908,0.0,4319.358887,4384.358887,4292.05127,4353.333496,4398.077148,4406.282227,4427.179688,4481.282227,4429.230957,4373.205078,4420.641113,4238.461426,4417.820313
1698668246.121717,0.0,4321.538574,4385.769043,4293.077148,4355.512695,4398.974121,4407.94873,4424.102539,4477.94873,4426.538574,4373.974121,4422.05127,4243.077148,4415.256348
1698668246.129525,0.0,4319.487305,4385.128418,4291.410156,4355.256348,4396.282227,4408.077148,4419.230957,4475.897461,4429.487305,4378.077148,4420.256348,4233.333496,4414.615234
1698668246.137333,0.0,4322.94873,4380.384766,4295.897461,4352.692383,4396.282227,4406.282227,4421.922852,4475.256348,4426.922852,4373.846191,4421.410156,4223.846191,4417.05127
1698668246.145141,0.0,4323.589844,4378.846191,4301.282227,4354.871582,4398.333496,4405.0,4423.205078,4481.922852,4425.256348,4374.871582,4424.230957,4239.871582,4417.05127
1698668246.152949,0.0,4317.692383,4385.897461,4292.179688,4353.589844,4399.230957,4409.358887,4421.666504,4483.333496,4424.487305,4376.922852,4416.153809,4232.94873,4415.897461
1698668246.160758,0.0,4322.820313,4381.282227,4297.94873,4354.230957,4397.563965,4408.461426,4419.230957,4477.307617,4427.179688,4377.179688,4419.102539,4237.94873,4417.179688
1698668246.168566,0.0,4320.641113,4379.358887,4297.307617,4352.692383,4397.307617,4406.922852,4423.461426,4476.153809,4433.333496,4376.794922,4421.025879,4237.436035,4418.974121
1698668246.176374,0.0,4319.358887,4382.692383,4294.871582,4352.436035,4398.077148,4405.384766,4423.717773,4476.922852,4426.666504,4373.974121,4417.692383,4222.179688,4417.692383
1698668246.184182,0.0,4322.563965,4382.436035,4302.692383,4355.641113,4398.077148,4404.230957,4418.717773,4476.410156,4426.922852,4377.820313,4421.666504,4236.666504,4417.563965
1698668246.191991,0.0,4318.717773,4385.384766,4294.358887,4350.897461,4399.743652,4408.974121,4422.179688,4477.179688,4432.436035,4376.153809,4418.717773,4230.641113,4416.666504
1698668246.199799,0.0,4323.461426,4383.846191,4296.410156,4353.205078,4397.94873,4406.538574,4421.025879,4479.358887,4428.077148,4374.615234,4422.692383,4233.077148,4415.512695
1698668246.207607,0.0,4318.205078,4386.025879,4298.589844,4356.282227,4396.153809,4404.358887,4418.846191,4478.846191,4428.974121,4377.692383,4425.641113,4243.077148,4418.846191
1698668246.215415,0.0,4314.615234,4385.897461,4295.769043,4351.794922,4399.358887,4406.922852,4422.563965,4477.692383,4427.820313,4371.794922,4420.128418,4225.256348,4416.666504
1698668246.223223,0.0,4322.436035,4381.153809,4303.461426,4355.641113,4400.256348,4404.871582,4418.717773,4477.820313,4427.436035,4373.333496,4423.333496,4232.563965,4416.922852
1698668246.231032,0.0,4317.307617,4389.743652,4292.563965,4355.512695,4398.461426,4407.692383,4419.102539,4478.333496,4428.461426,4374.230957,4421.410156,4239.487305,4420.512695
1698668246.23884,0.0,4318.974121,4388.974121,4291.153809,4354.358887,4397.94873,4408.461426,4424.102539,4478.333496,4425.256348,4369.615234,4421.410156,4240.769043,4417.94873
1698668246.246648,0.0,4319.615234,4382.307617,4300.769043,4359.230957,4398.205078,4405.641113,4422.307617,4476.025879,4429.230957,4374.358887,4424.743652,4237.563965,4420.0
1698668246.254456,0.0,4314.871582,4387.179688,4294.230957,4356.538574,4398.461426,4407.692383,4421.410156,4475.641113,4428.717773,4372.436035,4420.128418,4215.769043,4419.230957
1698668246.262264,0.0,4318.589844,4389.487305,4295.641113,4355.641113,4397.05127,4405.512695,4420.256348,4474.871582,4426.794922,4371.282227,4422.05127,4228.461426,4414.102539
1698668246.270073,0.0,4319.871582,4389.615234,4293.461426,4355.128418,4397.179688,4406.538574,4423.205078,4471.282227,4431.153809,4375.384766,4419.871582,4242.436035,4415.0
1698668246.277881,0.0,4322.94873,4382.179688,4295.897461,4352.692383,4398.205078,4408.974121,4424.487305,4471.282227,4429.871582,4373.589844,4416.666504,4246.922852,4415.256348
1698668246.285689,0.0,4320.897461,4382.820313,4300.897461,4355.384766,4397.436035,4407.692383,4419.743652,4472.307617,4428.974121,4375.512695,4420.769043,4240.641113,4417.692383
1698668246.293497,0.0,4316.410156,4387.692383,4292.692383,4353.461426,4398.333496,4408.205078,4424.102539,4475.128418,4426.666504,4374.743652,4417.307617,4203.077148,4417.820313
1698668246.301306,0.0,4320.641113,4381.153809,4301.025879,4353.974121,4400.0,4403.205078,4423.205078,4477.692383,4427.94873,4372.692383,4419.102539,4215.0,4417.820313
1698668246.309114,0.0,4318.205078,4384.743652,4298.077148,4356.922852,4399.743652,4404.871582,4420.897461,4477.179688,4434.102539,4374.358887,4420.256348,4252.05127,4419.230957
1698668246.316922,0.0,4319.871582,4385.128418,4289.230957,4355.384766,4398.717773,4411.666504,4425.512695,4478.205078,4429.871582,4372.05127,4418.717773,4256.922852,4415.0
1698668246.32473,0.0,4319.871582,4383.717773,4298.205078,4355.128418,4398.205078,4409.871582,4422.94873,4477.307617,4428.589844,4374.230957,4422.307617,4243.205078,4420.0
1698668246.332538,0.0,4312.692383,4387.436035,4293.589844,4352.94873,4398.589844,4408.205078,4421.538574,4478.461426,4430.256348,4375.384766,4417.692383,4210.128418,4423.077148
1698668246.340347,0.0,4320.256348,4382.307617,4292.692383,4355.0,4398.205078,4406.025879,4420.256348,4479.358887,4427.94873,4374.615234,4420.256348,4219.230957,4415.128418
1698668246.348155,0.0,4319.358887,4385.512695,4294.102539,4356.410156,4397.05127,4408.717773,4420.769043,4475.512695,4430.769043,4376.410156,4422.820313,4243.846191,4417.307617
1698668246.355963,0.0,4315.769043,4386.025879,4292.436035,4352.179688,4396.153809,4411.153809,4424.230957,4476.794922,4429.102539,4372.820313,4417.307617,4242.436035,4419.358887
1698668246.363771,0.0,4320.897461,4381.922852,4297.307617,4355.641113,4397.436035,4406.794922,4419.615234,4477.436035,4427.179688,4376.282227,4420.512695,4241.538574,4415.0
1698668246.37158,0.0,4317.436035,4386.666504,4290.897461,4354.358887,4399.871582,4407.436035,4421.282227,4475.0,4429.743652,4377.179688,4421.282227,4220.512695,4414.230957
1698668246.379388,0.0,4321.282227,4383.846191,4296.794922,4351.410156,4400.128418,4407.692383,4422.563965,4478.077148,4430.0,4372.563965,4422.692383,4219.615234,4414.871582
1698668246.387196,0.0,4318.205078,4383.846191,4301.410156,4354.487305,4398.974121,4409.743652,4417.820313,4479.871582,4431.410156,4376.025879,4422.563965,4240.897461,4418.205078
1698668246.395004,0.0,4316.282227,4386.153809,4293.077148,4353.974121,4398.974121,4410.128418,4418.717773,4477.820313,4426.153809,4373.717773,4418.717773,4243.205078,4416.153809
1698668246.402812,0.0,4323.846191,4384.487305,4296.794922,4357.692383,4399.871582,4403.333496,4422.179688,4478.589844,4425.897461,4373.205078,4422.820313,4247.692383,4416.025879
1698668246.410621,0.0,4317.05127,4388.717773,4294.871582,4356.538574,4399.230957,4406.153809,4424.871582,4478.461426,4431.153809,4374.102539,4420.384766,4226.922852,4421.666504
1698668246.418429,0.0,4316.153809,4384.230957,4296.282227,4351.794922,4397.820313,4407.563965,4420.128418,4476.538574,4426.538574,4370.897461,4419.871582,4212.94873,4420.512695
1698668246.426237,0.0,4319.615234,4380.0,4296.666504,4353.461426,4399.358887,4404.743652,4418.205078,4477.436035,4428.717773,4375.128418,4421.282227,4237.179688,4419.871582
1698668246.434045,0.0,4321.153809,4383.461426,4291.153809,4351.794922,4400.641113,4406.922852,4421.922852,4478.589844,4429.102539,4373.846191,4415.512695,4248.461426,4417.179688
1698668246.441853,0.0,4323.589844,4380.384766,4299.487305,4351.794922,4398.589844,4406.794922,4419.102539,4473.589844,4427.05127,4373.717773,4420.512695,4250.512695,4414.358887
1698668246.449662,0.0,4315.384766,4384.487305,4292.563965,4353.461426,4397.94873,4409.102539,4421.025879,4472.692383,4430.769043,4377.05127,4421.794922,4223.974121,4417.436035
1698668246.45747,0.0,4318.589844,4382.820313,4289.871582,4355.769043,4398.717773,4406.410156,4423.974121,4478.974121,4426.153809,4372.692383,4420.769043,4205.128418,4416.922852
1698668246.465278,0.0,4321.282227,4378.846191,4296.153809,4354.615234,4397.94873,4402.05127,4423.205078,4480.769043,4427.179688,4374.487305,4424.487305,4238.205078,4416.025879
1698668246.473086,0.0,4316.922852,4386.153809,4292.692383,4351.282227,4397.307617,4408.461426,4424.102539,4479.615234,4429.871582,4372.94873,4419.743652,4252.307617,4417.307617
1698668246.480895,0.0,4321.025879,4381.282227,4301.410156,4354.871582,4395.384766,4409.230957,4420.384766,4479.230957,4426.922852,4369.358887,4421.410156,4251.538574,4415.128418
1698668246.488703,0.0,4318.974121,4382.307617,4298.077148,4352.692383,4396.538574,4409.615234,4419.358887,4480.0,4429.615234,4373.846191,4421.666504,4227.436035,4413.205078
1698668246.496511,0.0,4320.512695,4386.410156,4292.692383,4350.256348,4398.461426,4410.641113,4420.512695,4479.487305,4427.94873,4371.666504,4419.743652,4199.871582,4415.769043
1698668246.504319,0.0,4321.025879,4380.0,4297.94873,4354.871582,4396.538574,4406.922852,4419.102539,4477.94873,4428.077148,4372.05127,4422.563965,4231.666504,4417.692383
1698668246.512128,0.0,4313.333496,4383.461426,4292.692383,4352.563965,4397.563965,4407.05127,4422.179688,4477.94873,4430.128418,4374.743652,4418.461426,4248.846191,4416.025879
1698668246.519936,0.0,4317.436035,4383.589844,4296.153809,4351.922852,4399.230957,4406.153809,4421.666504,4475.897461,4427.179688,4373.974121,4421.538574,4244.743652,4414.358887
1698668246.527744,0.0,4317.436035,4384.487305,4294.358887,4354.358887,4398.205078,4408.589844,4420.897461,4479.230957,4430.384766,4374.487305,4422.179688,4230.897461,4418.205078
1698668246.535552,0.0,4315.256348,4385.769043,4294.102539,4353.077148,4397.436035,4409.358887,4421.794922,4483.717773,4428.717773,4371.410156,4415.897461,4207.436035,4417.179688
1698668246.54336,0.0,4317.692383,4380.641113,4305.0,4355.384766,4396.666504,4402.307617,4417.692383,4479.102539,4426.282227,4373.077148,4420.256348,4229.230957,4411.153809
1698668246.551169,0.0,4313.717773,4385.256348,4297.179688,4352.94873,4397.307617,4404.230957,4421.410156,4476.282227,4429.230957,4375.641113,4420.641113,4242.692383,4413.205078
1698668246.558977,0.0,4318.717773,4387.692383,4294.487305,4352.820313,4397.820313,4406.410156,4424.102539,4479.615234,4427.307617,4373.846191,4421.538574,4241.538574,4417.692383
1698668246.566785,0.0,4320.897461,4385.897461,4296.794922,4356.922852,4397.692383,4406.282227,4422.820313,4481.025879,4428.846191,4375.769043,4422.820313,4234.743652,4417.563965
1698668246.574593,0.0,4320.384766,4385.641113,4293.333496,4352.820313,4397.820313,4408.461426,4427.563965,4480.897461,4427.563965,4372.05127,4418.205078,4215.512695,4415.256348
1698668246.582401,0.0,4325.897461,4385.512695,4302.563965,4355.256348,4398.077148,4406.282227,4423.974121,4481.538574,4426.794922,4369.871582,4421.666504,4233.077148,4416.666504
1698668246.59021,0.0,4317.436035,4388.205078,4295.897461,4356.666504,4400.128418,4408.077148,4421.922852,4482.05127,4431.025879,4375.256348,4420.256348,4238.205078,4418.846191
1698668246.598018,0.0,4316.538574,4386.538574,4291.282227,4354.487305,4399.615234,4407.94873,4422.820313,4480.256348,4428.333496,4375.512695,4419.102539,4223.461426,4414.487305
1698668246.605826,0.0,4320.384766,4388.077148,4300.512695,4355.769043,4396.410156,4405.0,4420.384766,4475.384766,4428.589844,4375.512695,4422.436035,4235.256348,4413.717773
1698668246.613634,0.0,4319.743652,4388.077148,4296.025879,4352.179688,4397.05127,4407.563965,4424.487305,4477.179688,4429.102539,4373.205078,4417.179688,4245.769043,4415.769043
1698668246.621442,0.0,4324.230957,4380.641113,4299.230957,4355.641113,4398.205078,4405.641113,4423.333496,4483.461426,4426.410156,4371.922852,4418.846191,4251.025879,4414.743652
1698668246.629251,0.0,4317.05127,4385.512695,4296.282227,4357.692383,4396.410156,4405.512695,4422.05127,4482.820313,4429.358887,4375.897461,4421.153809,4225.128418,4415.512695
1698668246.637059,0.0,4317.820313,4387.692383,4293.205078,4353.077148,4397.179688,4407.436035,4426.538574,4480.641113,4429.871582,4374.743652,4419.615234,4197.179688,4415.384766
1698668246.644867,0.0,4322.05127,4381.794922,4300.384766,4355.256348,4399.358887,4404.743652,4423.846191,4478.589844,4430.641113,4375.256348,4420.769043,4229.871582,4415.769043
1698668246.652676,0.0,4315.256348,4385.0,4291.794922,4355.512695,4397.820313,4404.743652,4420.897461,4479.102539,4427.820313,4374.230957,4417.692383,4265.769043,4416.025879
1698668246.660484,0.0,4319.230957,4383.589844,4294.230957,4356.282227,4396.922852,4402.94873,4420.256348,4480.641113,4424.743652,4373.461426,4421.538574,4267.692383,4414.358887
1698668246.668292,0.0,4318.846191,4381.410156,4297.307617,4356.282227,4399.358887,4404.487305,4421.025879,4480.897461,4432.307617,4376.153809,4421.794922,4223.077148,4416.922852
1698668246.6761,0.0,4318.077148,4381.410156,4293.589844,4354.487305,4399.615234,4409.358887,4422.94873,4480.897461,4431.922852,4372.05127,4416.538574,4179.871582,4414.871582
1698668246.683908,0.0,4321.922852,4382.05127,4297.307617,4357.307617,4398.077148,4409.230957,4419.871582,4479.230957,4428.717773,4372.436035,4418.205078,4224.230957,4412.563965
1698668246.691717,0.0,4317.692383,4386.922852,4290.128418,4352.820313,4397.94873,4410.0,4421.025879,4482.94873,4431.282227,4373.333496,4414.743652,4273.461426,4415.128418
1698668246.699525,0.0,4318.333496,4379.102539,4295.641113,4350.128418,4398.461426,4407.179688,4422.692383,4485.128418,4429.871582,4369.487305,4417.94873,4276.282227,4414.871582
1698668246.707333,0.0,4317.94873,4382.820313,4301.282227,4354.230957,4399.743652,4407.820313,4421.153809,4478.333496,4429.871582,4371.666504,4422.307617,4232.05127,4414.230957
1698668246.715141,0.0,4319.358887,4389.358887,4293.077148,4354.358887,4398.846191,4410.897461,4422.179688,4479.358887,4427.94873,4371.922852,4419.102539,4179.487305,4411.666504
1698668246.722949,0.0,4322.436035,4380.128418,4296.282227,4355.256348,4397.436035,4405.769043,4421.794922,4483.589844,4428.333496,4374.743652,4422.05127,4217.307617,4412.563965
1698668246.730758,0.0,4316.922852,4383.077148,4292.94873,4353.717773,4399.102539,4406.025879,4424.358887,4481.153809,4429.487305,4374.871582,4418.974121,4266.538574,4416.025879
1698668246.738566,0.0,4319.615234,4382.563965,4296.153809,4353.205078,4399.358887,4406.153809,4421.794922,4480.897461,4425.512695,4371.410156,4419.102539,4265.769043,4413.077148
1698668246.746374,0.0,4319.358887,4382.05127,4302.05127,4356.794922,4397.436035,4406.025879,4417.563965,4480.769043,4430.512695,4377.307617,4422.692383,4237.820313,4413.717773
1698668246.754182,0.0,4316.666504,4383.333496,4293.333496,4353.333496,4397.94873,4408.461426,4422.179688,4480.897461,4431.153809,4373.589844,4419.487305,4201.410156,4416.153809
1698668246.76199,0.0,4322.436035,4377.179688,4295.897461,4350.769043,4398.589844,4404.358887,4421.410156,4481.282227,4426.025879,4370.0,4422.94873,4224.102539,4415.128418
1698668246.769799,0.0,4316.538574,4382.692383,4295.769043,4353.205078,4398.077148,4405.0,4421.538574,4481.025879,4429.230957,4377.436035,4420.512695,4252.563965,4416.282227
1698668246.777607,0.0,4316.538574,4383.333496,4295.641113,4355.0,4397.820313,4407.05127,4423.077148,4483.461426,4428.077148,4376.282227,4417.820313,4253.717773,4414.615234
1698668246.785415,0.0,4320.512695,4379.871582,4297.94873,4355.897461,4397.94873,4406.794922,4419.102539,4484.230957,4428.333496,4373.974121,4421.922852,4244.102539,4413.974121
1698668246.793223,0.0,4314.871582,4383.846191,4292.563965,4352.05127,4399.871582,4409.102539,4420.512695,4479.743652,4430.256348,4372.563965,4417.05127,4211.538574,4415.512695
1698668246.801031,0.0,4317.307617,4380.641113,4300.769043,4354.358887,4398.205078,4405.769043,4422.05127,4478.717773,4428.974121,4373.974121,4419.230957,4221.410156,4413.461426
1698668246.80884,0.0,4314.615234,4382.05127,4296.025879,4356.153809,4394.743652,4407.307617,4423.589844,4483.717773,4428.846191,4378.333496,4420.512695,4244.615234,4412.179688
1698668246.816648,0.0,4317.436035,4387.179688,4292.820313,4353.974121,4396.666504,4408.717773,4421.666504,4483.589844,4425.384766,4376.666504,4418.205078,4250.0,4413.461426
1698668246.824456,0.0,4321.410156,4382.94873,4302.436035,4357.563965,4399.230957,4403.205078,4417.436035,4480.897461,4430.256348,4378.333496,4422.94873,4252.820313,4417.307617
1698668246.832265,0.0,4314.102539,4380.897461,4292.307617,4355.512695,4398.589844,4406.794922,4424.358887,4481.282227,4432.436035,4377.05127,4419.102539,4215.897461,4416.538574
1698668246.840073,0.0,4317.436035,4380.384766,4293.589844,4355.512695,4398.333496,4408.461426,4425.384766,4478.974121,4425.384766,4373.205078,4419.230957,4209.230957,4412.05127
1698668246.847881,0.0,4318.333496,4382.94873,4297.179688,4355.641113,4400.769043,4407.436035,4419.358887,4477.179688,4428.846191,4376.153809,4422.563965,4246.538574,4413.974121
1698668246.855689,0.0,4321.153809,4383.077148,4293.589844,4352.05127,4401.025879,4409.743652,4421.666504,4481.282227,4430.256348,4374.230957,4418.846191,4262.179688,4413.974121
1698668246.863497,0.0,4324.358887,4379.743652,4299.102539,4354.871582,4398.846191,4407.563965,4422.563965,4484.230957,4429.743652,4375.0,4421.922852,4250.769043,4411.538574
1698668246.871306,0.0,4315.384766,4386.538574,4294.615234,4353.846191,4398.974121,4407.563965,4422.307617,4480.769043,4431.410156,4376.025879,4423.461426,4204.487305,4413.077148
1698668246.879114,0.0,4318.589844,4384.871582,4298.205078,4355.769043,4398.846191,4406.282227,4421.538574,4479.743652,4428.333496,4372.436035,4424.487305,4196.153809,4414.743652
1698668246.886922,0.0,4320.384766,4381.025879,4300.128418,4358.333496,4399.358887,4406.153809,4422.05127,4483.333496,4430.0,4376.538574,4423.589844,4244.358887,4415.256348
1698668246.89473,0.0,4317.436035,4385.512695,4291.666504,4354.358887,4400.0,4407.307617,4423.461426,4482.692383,4428.717773,4374.487305,4420.384766,4272.179688,4415.641113
1698668246.902538,0.0,4321.025879,4382.179688,4296.153809,4356.538574,4398.205078,4402.307617,4420.897461,4480.641113,4428.205078,4369.358887,4424.871582,4263.974121,4416.538574
1698668246.910347,0.0,4318.333496,4382.436035,4293.205078,4355.384766,4400.0,4404.358887,4423.846191,4481.666504,4432.436035,4371.794922,4421.153809,4210.897461,4415.0
1698668246.918155,0.0,4320.256348,4381.410156,4293.846191,4351.794922,4402.179688,4406.153809,4421.666504,4479.871582,4428.333496,4374.743652,4422.436035,4187.05127,4411.282227
1698668246.925963,0.0,4321.538574,4380.128418,4297.563965,4354.871582,4399.743652,4403.974121,4415.897461,4476.538574,4429.230957,4376.025879,4427.307617,4241.922852,4412.94873
1698668246.933771,0.0,4319.358887,4384.871582,4291.025879,4354.615234,4399.487305,4406.666504,4421.538574,4478.333496,4431.153809,4372.563965,4419.102539,4277.179688,4415.897461
1698668246.941579,0.0,4321.666504,4382.820313,4295.641113,4354.230957,4400.512695,4405.641113,4423.846191,4479.615234,4429.358887,4376.025879,4421.538574,4263.205078,4417.05127
1698668246.949388,0.0,4316.922852,4383.974121,4293.333496,4353.846191,4398.205078,4406.282227,4422.307617,4479.358887,4431.538574,4376.794922,4422.307617,4216.025879,4416.922852
1698668246.957196,0.0,4318.461426,4382.307617,4292.692383,4352.94873,4396.538574,4407.05127,4421.282227,4480.769043,4428.077148,4369.230957,4418.205078,4191.153809,4413.589844
1698668246.965004,0.0,4319.615234,4383.461426,4297.94873,4355.128418,4397.692383,4405.897461,4419.871582,4480.256348,4428.333496,4375.0,4422.692383,4232.692383,4415.641113
1698668246.972812,0.0,4315.384766,4390.512695,4292.179688,4352.563965,4400.0,4409.358887,4423.205078,4479.743652,4430.0,4374.102539,4420.256348,4260.128418,4417.94873
1698668246.980621,0.0,4322.307617,4382.307617,4298.717773,4353.846191,4398.717773,4406.794922,4419.102539,4483.077148,4427.307617,4368.205078,4421.153809,4257.179688,4415.128418
1698668246.988429,0.0,4320.384766,4381.538574,4297.94873,4356.282227,4396.794922,4405.384766,4416.025879,4485.769043,4428.717773,4375.512695,4420.128418,4231.794922,4417.05127
1698668246.996237,0.0,4319.358887,4386.410156,4292.820313,4352.307617,4398.974121,4407.94873,4419.743652,4484.102539,4426.410156,4376.025879,4415.0,4204.871582,4416.794922
1698668247.004045,0.0,4322.179688,4385.0,4301.410156,4353.461426,4398.974121,4407.436035,4419.743652,4481.153809,4428.077148,4375.0,4420.128418,4230.897461,4414.615234
1698668247.011854,0.0,4314.102539,4385.641113,4295.128418,4352.307617,4397.563965,4409.871582,4423.077148,4483.205078,4429.487305,4375.128418,4421.538574,4245.641113,4415.128418
1698668247.019662,0.0,4318.589844,4380.512695,4294.358887,4353.589844,4398.717773,4407.820313,4420.897461,4482.563965,4426.153809,4372.820313,4422.307617,4249.615234,4414.743652
1698668247.02747,0.0,4321.666504,4380.769043,4295.128418,4356.153809,4400.641113,4404.743652,4416.922852,4479.358887,4431.410156,4376.538574,4421.922852,4241.666504,4416.922852
1698668247.035278,0.0,4320.0,4385.512695,4288.205078,4351.922852,4399.615234,4405.897461,4421.666504,4479.615234,4429.358887,4376.282227,4418.589844,4209.487305,4416.025879
1698668247.043086,0.0,4325.256348,4383.846191,4295.897461,4355.512695,4398.717773,4404.358887,4421.025879,4479.102539,4426.025879,4375.0,4421.666504,4228.205078,4417.179688
1698668247.050895,0.0,4321.153809,4383.589844,4293.461426,4358.205078,4400.512695,4405.512695,4422.436035,4481.538574,4430.512695,4375.769043,4419.358887,4250.512695,4418.077148
1698668247.058703,0.0,4321.282227,4379.358887,4295.769043,4356.410156,4399.615234,4405.512695,4425.256348,4485.384766,4428.974121,4373.846191,4420.897461,4251.025879,4411.153809
1698668247.066511,0.0,4319.358887,4379.743652,4301.410156,4355.769043,4397.563965,4407.179688,4421.538574,4482.436035,4428.974121,4374.487305,4424.615234,4240.128418,4413.077148
1698668247.074319,0.0,4316.794922,4385.128418,4292.05127,4352.94873,4397.307617,4410.256348,4421.794922,4481.025879,4428.077148,4371.025879,4416.666504,4210.769043,4417.307617
1698668247.082127,0.0,4323.205078,4381.153809,4296.794922,4355.256348,4397.94873,4405.0,4422.05127,4481.410156,4427.307617,4371.282227,4419.487305,4223.717773,4413.589844
1698668247.089936,0.0,4320.897461,4380.769043,4297.05127,4354.230957,4399.230957,4406.153809,4422.820313,4477.05127,4429.871582,4374.358887,4423.974121,4245.512695,4412.820313
1698668247.097744,0.0,4322.436035,4380.512695,4296.538574,4351.794922,4398.333496,4408.974121,4421.666504,4477.820313,4426.025879,4371.922852,4421.922852,4239.743652,4414.743652
1698668247.105552,0.0,4319.358887,4383.077148,4301.666504,4356.282227,4397.692383,4405.256348,4416.538574,4481.410156,4429.230957,4375.512695,4423.333496,4238.077148,4415.897461
1698668247.11336,0.0,4313.717773,4388.974121,4294.358887,4353.974121,4399.230957,4407.05127,4420.0,4481.153809,4433.846191,4374.487305,4419.743652,4231.922852,4415.897461
1698668247.121169,0.0,4320.384766,4382.05127,4297.307617,4352.307617,4398.846191,4406.153809,4423.333496,4479.871582,4430.897461,4371.410156,4421.282227,4242.692383,4417.05127
1698668247.128977,0.0,4317.820313,4384.230957,4294.487305,4353.846191,4398.333496,4405.641113,4422.692383,4478.333496,4431.410156,4375.897461,4421.538574,4232.94873,4417.692383
1698668247.136785,0.0,4318.077148,4387.05127,4292.692383,4354.743652,4399.615234,4408.205078,4422.307617,4480.256348,4428.461426,4377.94873,4420.128418,4216.153809,4414.230957
1698668247.144593,0.0,4320.0,4382.94873,4298.717773,4356.666504,4398.461426,4407.436035,4419.230957,4481.794922,4429.230957,4377.436035,4425.384766,4237.94873,4415.512695
1698668247.152401,0.0,4315.384766,4385.384766,4289.102539,4353.717773,4397.307617,4408.077148,4423.846191,4480.0,4431.666504,4371.153809,4421.794922,4237.436035,4416.666504
1698668247.16021,0.0,4322.436035,4380.769043,4293.205078,4353.717773,4398.717773,4406.282227,4424.871582,4480.0,4427.307617,4369.102539,4421.153809,4229.615234,4411.922852
1698668247.168018,0.0,4323.589844,4384.487305,4298.589844,4355.0,4399.487305,4406.794922,4419.615234,4480.769043,4428.461426,4377.05127,4422.436035,4241.922852,4414.230957
1698668247.175826,0.0,4320.641113,4387.692383,4294.230957,4352.94873,4397.820313,4408.077148,4420.0,4480.641113,4427.436035,4374.230957,4420.897461,4248.846191,4416.538574
1698668247.183634,0.0,4323.846191,4379.230957,4295.897461,4355.897461,4397.307617,4406.410156,4420.128418,4480.512695,4428.333496,4372.692383,4423.846191,4248.461426,4414.358887
1698668247.191443,0.0,4319.230957,4385.641113,4290.641113,4355.512695,4400.384766,4409.743652,4420.641113,4480.641113,4432.05127,4375.641113,4420.384766,4215.769043,4416.282227
1698668247.199251,0.0,4318.717773,4387.307617,4295.128418,4355.769043,4400.384766,4407.563965,4420.897461,4480.0,4427.94873,4371.025879,4422.05127,4208.077148,4416.922852
1698668247.207059,0.0,4320.512695,4381.922852,4297.563965,4356.922852,4398.717773,4406.410156,4423.333496,4481.410156,4430.384766,4372.179688,4423.717773,4242.05127,4415.641113
1698668247.214867,0.0,4321.025879,4384.358887,4291.538574,4354.102539,4400.384766,4410.384766,4424.102539,4481.282227,4431.282227,4373.333496,4418.333496,4255.256348,4416.153809
1698668247.222675,0.0,4321.794922,4386.153809,4297.179688,4355.256348,4400.641113,4405.512695,4419.102539,4480.384766,4429.230957,4375.769043,4423.717773,4254.871582,4416.153809
1698668247.230484,0.0,4314.487305,4387.94873,4294.871582,4352.563965,4398.974121,4405.256348,4421.538574,4480.256348,4431.153809,4378.589844,4421.410156,4223.717773,4415.641113
1698668247.238292,0.0,4317.563965,4383.077148,4296.025879,4351.025879,4397.94873,4406.794922,4423.333496,4478.333496,4427.692383,4374.743652,4418.974121,4210.128418,4414.871582
1698668247.2461,0.0,4317.94873,4379.743652,4298.077148,4356.794922,4399.102539,4406.282227,4423.333496,4480.0,4429.230957,4376.794922,4423.333496,4242.179688,4415.512695
1698668247.253908,0.0,4311.794922,4386.666504,4293.077148,4353.717773,4400.128418,4409.871582,4425.0,4484.358887,4429.358887,4376.410156,4419.358887,4249.230957,4415.641113
1698668247.261716,0.0,4317.692383,4384.102539,4300.512695,4352.563965,4397.820313,4406.538574,4419.230957,4486.666504,4427.436035,4372.692383,4420.641113,4248.846191,4415.0
1698668247.269525,0.0,4318.461426,4382.820313,4294.871582,4356.410156,4398.717773,4406.922852,4418.846191,4485.897461,4430.769043,4373.461426,4419.743652,4232.692383,4416.538574
1698668247.277333,0.0,4321.153809,4388.077148,4292.05127,4356.666504,4401.666504,4409.102539,4423.077148,4483.974121,4428.077148,4374.102539,4417.820313,4217.179688,4415.384766
1698668247.285141,0.0,4319.358887,4387.692383,4297.820313,4354.487305,4399.230957,4406.666504,4421.794922,4486.153809,4429.871582,4377.820313,4422.05127,4240.769043,4413.846191
1698668247.292949,0.0,4312.820313,4387.563965,4288.205078,4351.410156,4396.794922,4408.333496,4421.666504,4485.897461,4433.077148,4374.102539,4420.384766,4243.461426,4413.974121
1698668247.300758,0.0,4320.128418,4381.794922,4294.102539,4354.871582,4397.307617,4404.358887,4420.512695,4479.871582,4430.256348,4368.974121,4422.563965,4240.0,4414.615234
1698668247.308566,0.0,4319.102539,4380.769043,4297.436035,4355.0,4399.358887,4404.358887,4421.794922,4480.384766,4430.128418,4373.333496,4421.410156,4237.94873,4417.05127
1698668247.316374,0.0,4319.230957,4383.717773,4292.692383,4352.563965,4401.922852,4408.205078,4422.563965,4485.641113,4427.692383,4373.205078,4416.538574,4229.743652,4416.666504
1698668247.324182,0.0,4322.820313,4380.256348,4298.461426,4354.102539,4400.384766,4407.05127,4419.230957,4481.538574,4430.128418,4375.641113,4417.820313,4244.230957,4413.846191
1698668247.33199,0.0,4316.922852,4383.589844,4292.563965,4349.743652,4397.820313,4408.461426,4422.05127,4477.307617,4432.563965,4379.743652,4413.846191,4237.307617,4414.871582
1698668247.339799,0.0,4321.282227,4382.692383,4293.205078,4353.589844,4397.563965,4406.794922,4423.205078,4478.974121,4429.102539,4378.589844,4418.974121,4235.256348,4418.461426
1698668247.347607,0.0,4321.666504,4383.205078,4294.230957,4358.333496,4398.589844,4406.666504,4420.641113,4481.153809,4433.461426,4379.230957,4426.410156,4243.846191,4421.153809
1698668247.355415,0.0,4318.333496,4383.589844,4290.897461,4352.436035,4398.589844,4409.743652,4421.282227,4482.436035,4431.538574,4375.0,4419.615234,4228.205078,4417.94873
1698668247.363223,0.0,4322.05127,4378.974121,4298.846191,4355.384766,4397.820313,4407.179688,4420.769043,4481.410156,4426.666504,4375.0,4416.410156,4235.128418,4413.333496
1698668247.371032,0.0,4319.230957,4383.846191,4296.025879,4356.153809,4398.589844,4407.179688,4424.871582,4479.230957,4429.871582,4377.436035,4417.179688,4238.077148,4413.077148
1698668247.37884,0.0,4323.974121,4379.487305,4297.692383,4351.794922,4398.846191,4407.307617,4424.102539,4477.179688,4429.615234,4374.743652,4425.256348,4241.794922,4415.256348
1698668247.386648,0.0,4322.692383,4378.846191,4298.077148,4355.0,4398.846191,4405.897461,4417.94873,4477.05127,4430.256348,4377.820313,4425.512695,4245.512695,4418.333496
1698668247.394456,0.0,4316.538574,4386.666504,4288.717773,4356.025879,4398.974121,4407.692383,4422.179688,4479.487305,4427.307617,4376.025879,4415.641113,4216.794922,4416.794922
1698668247.402264,0.0,4321.922852,4382.436035,4297.179688,4355.384766,4398.717773,4405.897461,4421.794922,4479.743652,4427.307617,4377.05127,4423.717773,4224.615234,4413.205078
1698668247.410073,0.0,4317.307617,4382.307617,4296.794922,4352.436035,4399.102539,4407.563965,4422.436035,4479.230957,4433.589844,4381.025879,4426.025879,4247.94873,4414.230957
1698668247.417881,0.0,4318.589844,4383.077148,4296.666504,4352.179688,4399.358887,4408.461426,4425.769043,4478.461426,4428.974121,4374.487305,4418.589844,4252.563965,4415.128418
1698668247.425689,0.0,4322.692383,4382.692383,4303.333496,4355.384766,4398.333496,4406.025879,4421.410156,4478.717773,4426.538574,4373.589844,4421.025879,4245.128418,4417.05127
1698668247.433497,0.0,4318.333496,4382.94873,4293.205078,4351.794922,4398.205078,4408.461426,4421.922852,4482.05127,4428.974121,4372.307617,4420.769043,4211.410156,4416.153809
1698668247.441306,0.0,4321.410156,4379.743652,4294.487305,4353.589844,4399.615234,4407.179688,4423.974121,4481.666504,4427.179688,4371.025879,4420.897461,4219.230957,4414.743652
1698668247.449114,0.0,4318.077148,4383.717773,4294.230957,4355.256348,4401.153809,4408.333496,4425.128418,4480.897461,4427.692383,4376.922852,4420.128418,4246.538574,4418.846191
1698668247.456922,0.0,4317.436035,4385.641113,4291.794922,4350.512695,4400.641113,4409.358887,4422.436035,4483.846191,4426.025879,4376.282227,4420.897461,4252.05127,4416.153809
1698668247.46473,0.0,4320.641113,4384.358887,4300.641113,4353.461426,4399.871582,4405.128418,4418.589844,4481.922852,4427.05127,4376.666504,4425.641113,4248.717773,4411.666504
1698668247.472538,0.0,4317.692383,4385.769043,4294.743652,4354.615234,4401.025879,4405.384766,4423.205078,4481.025879,4429.615234,4375.897461,4419.487305,4214.102539,4414.230957
1698668247.480347,0.0,4322.436035,4381.538574,4296.922852,4353.717773,4399.871582,4402.563965,4422.563965,4483.333496,4429.743652,4372.563965,4419.230957,4211.282227,4417.05127
1698668247.488155,0.0,4320.0,4383.077148,4300.0,4354.358887,4397.179688,4403.974121,4420.128418,4480.769043,4432.563965,4374.358887,4424.230957,4246.025879,4418.589844
1698668247.495963,0.0,4317.692383,4384.358887,4295.128418,4352.820313,4398.461426,4408.461426,4423.205078,4480.256348,4428.589844,4374.358887,4419.743652,4252.692383,4415.769043
1698668247.503771,0.0,4321.666504,4380.0,4295.641113,4355.769043,4399.615234,4406.282227,4420.384766,4480.641113,4427.179688,4376.282227,4417.94873,4244.615234,4414.230957
1698668247.511579,0.0,4319.743652,4385.769043,4290.384766,4355.128418,4399.358887,4408.717773,4419.487305,4478.589844,4429.615234,4375.128418,4417.05127,4226.282227,4414.230957
1698668247.519388,0.0,4323.333496,4383.974121,4298.461426,4353.333496,4398.974121,4409.487305,4419.615234,4482.05127,4426.025879,4373.077148,4421.153809,4233.717773,4413.205078
1698668247.527196,0.0,4321.025879,4380.641113,4296.410156,4353.717773,4397.820313,4408.205078,4420.512695,4484.743652,4430.384766,4377.692383,4422.179688,4244.487305,4416.538574
1698668247.535004,0.0,4318.589844,4385.128418,4288.846191,4352.692383,4396.410156,4409.487305,4424.102539,4481.666504,4431.666504,4374.487305,4417.179688,4225.512695,4414.230957
1698668247.542812,0.0,4319.230957,4380.128418,4303.461426,4355.769043,4397.692383,4405.384766,4420.897461,4481.153809,4427.436035,4375.0,4420.0,4234.871582,4409.358887
1698668247.550621,0.0,4313.077148,4381.282227,4299.230957,4354.230957,4399.871582,4405.641113,4421.025879,4486.025879,4428.846191,4380.384766,4416.538574,4241.538574,4413.205078
1698668247.558429,0.0,4320.512695,4382.94873,4292.05127,4353.461426,4398.205078,4406.922852,4422.820313,4483.846191,4429.230957,4376.922852,4416.538574,4233.589844,4417.436035
1698668247.566237,0.0,4320.769043,4382.05127,4293.846191,4355.384766,4396.922852,4407.307617,4420.384766,4477.05127,4432.179688,4376.922852,4420.641113,4239.615234,4419.358887
1698668247.574045,0.0,4313.333496,4383.077148,4290.384766,4352.05127,4398.846191,4409.743652,4422.307617,4482.179688,4428.717773,4374.871582,4416.410156,4231.922852,4417.94873
1698668247.581854,0.0,4320.897461,4377.436035,4296.922852,4355.128418,4398.974121,4405.384766,4421.538574,4487.692383,4426.025879,4372.94873,4422.436035,4242.05127,4413.717773
1698668247.589662,0.0,4318.846191,4382.820313,4293.589844,4355.641113,4398.974121,4406.153809,4421.282227,4482.436035,4431.153809,4377.820313,4423.717773,4238.205078,4414.230957
1698668247.59747,0.0,4316.153809,4385.384766,4292.05127,4351.410156,4400.0,4410.384766,4421.410156,4480.384766,4428.461426,4377.820313,4421.922852,4222.563965,4415.384766
1698668247.605278,0.0,4319.743652,4382.05127,4296.282227,4354.102539,4397.563965,4407.05127,4419.230957,4485.0,4428.205078,4377.820313,4426.025879,4238.589844,4414.230957
1698668247.613086,0.0,4318.205078,4383.461426,4288.589844,4354.487305,4395.256348,4406.410156,4422.436035,4483.974121,4429.487305,4376.025879,4421.666504,4239.615234,4413.846191
1698668247.620895,0.0,4322.436035,4378.333496,4293.077148,4355.128418,4396.025879,4406.153809,4421.538574,4480.897461,4427.436035,4375.256348,4424.230957,4242.820313,4416.410156
1698668247.628703,0.0,4321.794922,4381.922852,4293.589844,4354.358887,4397.820313,4408.461426,4420.512695,4483.077148,4430.128418,4376.922852,4425.512695,4239.230957,4419.743652
1698668247.636511,0.0,4321.025879,4385.384766,4289.615234,4352.307617,4398.077148,4408.461426,4421.538574,4484.487305,4426.282227,4371.922852,4421.153809,4217.692383,4416.922852
1698668247.644319,0.0,4323.205078,4382.436035,4297.94873,4354.615234,4399.358887,4404.615234,4418.974121,4485.384766,4425.641113,4374.230957,4424.230957,4234.615234,4416.794922
1698668247.652127,0.0,4319.743652,4386.025879,4294.230957,4351.282227,4401.666504,4408.461426,4422.05127,4484.487305,4429.615234,4377.179688,4421.025879,4253.717773,4417.563965
1698668247.659936,0.0,4324.102539,4382.563965,4296.153809,4351.922852,4399.871582,4409.615234,4420.897461,4481.153809,4427.692383,4374.615234,4424.102539,4251.794922,4412.436035
1698668247.667744,0.0,4323.333496,4382.436035,4295.256348,4356.025879,4398.077148,4408.077148,4416.666504,4482.179688,4430.0,4378.077148,4427.05127,4233.846191,4412.692383
1698668247.675552,0.0,4318.846191,4385.512695,4285.128418,4351.922852,4398.589844,4409.615234,4420.512695,4484.615234,4428.589844,4376.922852,4418.717773,4219.871582,4416.153809
1698668247.68336,0.0,4321.410156,4381.282227,4292.94873,4352.563965,4396.666504,4408.077148,4421.282227,4481.282227,4427.179688,4375.512695,4419.615234,4241.666504,4417.692383
1698668247.691168,0.0,4319.230957,4383.205078,4293.077148,4352.179688,4396.794922,4409.230957,4421.410156,4481.153809,4428.205078,4375.641113,4419.743652,4243.846191,4417.692383
1698668247.698977,0.0,4323.589844,4382.820313,4293.205078,4350.512695,4398.717773,4407.820313,4420.641113,4484.743652,4425.0,4373.589844,4417.692383,4232.05127,4414.358887
1698668247.706785,0.0,4322.692383,4381.282227,4298.461426,4352.307617,4397.563965,4407.94873,4419.230957,4480.897461,4428.846191,4376.153809,4419.871582,4238.333496,4415.897461
1698668247.714593,0.0,4316.153809,4382.94873,4292.563965,4350.897461,4396.666504,4412.05127,4423.846191,4480.256348,4429.743652,4373.461426,4419.358887,4237.179688,4416.666504
1698668247.722402,0.0,4319.615234,4379.358887,4295.0,4353.974121,4397.307617,4408.589844,4420.256348,4484.358887,4427.692383,4371.666504,4422.436035,4247.820313,4414.230957
1698668247.73021,0.0,4317.563965,4382.820313,4292.563965,4355.256348,4397.436035,4407.179688,4416.538574,4482.692383,4431.282227,4373.717773,4419.230957,4238.846191,4414.230957
1698668247.738018,0.0,4319.743652,4383.077148,4294.230957,4353.589844,4396.666504,4407.94873,4421.153809,4481.538574,4429.871582,4372.820313,4416.538574,4222.307617,4411.922852
1698668247.745826,0.0,4320.128418,4378.589844,4300.384766,4355.641113,4396.794922,4406.922852,4421.410156,4482.563965,4430.256348,4375.897461,4422.179688,4238.717773,4413.205078
1698668247.753634,0.0,4317.563965,4383.974121,4291.922852,4353.717773,4398.846191,4409.487305,4421.410156,4481.538574,4428.333496,4373.461426,4418.974121,4246.538574,4414.743652
1698668247.761443,0.0,4324.871582,4383.846191,4296.410156,4355.128418,4399.230957,4407.436035,4420.256348,4479.358887,4426.794922,4373.846191,4419.871582,4250.641113,4415.0
1698668247.769251,0.0,4319.487305,4383.205078,4294.487305,4355.256348,4399.487305,4407.05127,4422.05127,4480.0,4432.05127,4380.128418,4420.769043,4231.410156,4417.436035
1698668247.777059,0.0,4320.256348,4384.358887,4288.589844,4349.615234,4399.615234,4409.615234,4425.0,4479.871582,4428.205078,4375.0,4418.846191,4203.461426,4416.794922
1698668247.784867,0.0,4324.358887,4384.743652,4295.256348,4351.025879,4397.563965,4407.692383,4421.666504,4479.487305,4427.820313,4374.743652,4422.05127,4233.205078,4416.025879
1698668247.792675,0.0,4312.436035,4385.897461,4290.897461,4353.205078,4397.692383,4409.743652,4423.205078,4483.846191,4430.769043,4375.897461,4416.153809,4261.794922,4414.743652
1698668247.800484,0.0,4316.794922,4379.487305,4297.05127,4356.025879,4398.589844,4410.256348,4421.153809,4484.230957,4427.563965,4374.487305,4416.666504,4266.794922,4417.05127
1698668247.808292,0.0,4321.666504,4383.461426,4297.179688,4356.794922,4399.102539,4408.589844,4417.436035,4478.846191,4429.871582,4377.692383,4421.153809,4234.358887,4421.538574
1698668247.8161,0.0,4317.563965,4386.410156,4288.333496,4351.410156,4400.641113,4408.846191,4421.794922,4478.717773,4428.333496,4374.358887,4418.333496,4190.0,4414.871582
1698668247.823908,0.0,4321.410156,4380.0,4299.230957,4354.487305,4399.871582,4405.897461,4420.769043,4482.692383,4428.333496,4375.384766,4421.794922,4224.871582,4412.563965
1698668247.831716,0.0,4320.0,4381.153809,4295.512695,4358.205078,4398.077148,4409.102539,4420.128418,4480.384766,4430.897461,4376.153809,4418.589844,4269.358887,4416.794922
1698668247.839525,0.0,4321.153809,4378.461426,4288.333496,4355.897461,4397.692383,4408.205078,4421.538574,4476.922852,4426.666504,4373.205078,4418.846191,4270.641113,4413.589844
1698668247.847333,0.0,4320.384766,4380.512695,4291.538574,4354.487305,4398.589844,4404.230957,4420.384766,4478.461426,4428.717773,4377.307617,4422.563965,4239.487305,4414.871582
1698668247.855141,0.0,4315.512695,4385.384766,4291.282227,4352.179688,4399.487305,4409.230957,4420.384766,4481.794922,4428.846191,4375.384766,4415.769043,4200.769043,4416.666504
1698668247.862949,0.0,4316.922852,4383.077148,4295.384766,4356.538574,4398.846191,4408.205078,4419.615234,4481.794922,4427.820313,4375.0,4418.333496,4225.384766,4416.025879
1698668247.870757,0.0,4316.153809,4384.487305,4290.897461,4356.666504,4397.05127,4405.256348,4423.333496,4480.384766,4430.0,4376.794922,4422.436035,4254.871582,4418.974121
1698668247.878566,0.0,4320.384766,4382.563965,4293.974121,4352.94873,4396.025879,4405.512695,4424.358887,4482.563965,4427.307617,4372.179688,4422.94873,4260.384766,4416.794922
1698668247.886374,0.0,4318.717773,4382.692383,4297.436035,4355.0,4397.05127,4405.897461,4420.512695,4482.94873,4428.205078,4373.589844,4421.794922,4249.358887,4416.538574
1698668247.894182,0.0,4315.256348,4385.128418,4289.230957,4353.589844,4399.230957,4406.282227,4422.436035,4481.282227,4427.436035,4372.436035,4416.282227,4210.769043,4415.769043
1698668247.901991,0.0,4320.512695,4378.589844,4296.410156,4355.0,4401.025879,4403.974121,4421.410156,4482.692383,4426.282227,4370.256348,4422.820313,4222.05127,4412.94873
1698668247.909799,0.0,4315.897461,4382.94873,4292.94873,4355.0,4400.512695,4405.897461,4422.179688,4486.153809,4430.769043,4377.179688,4425.128418,4252.94873,4413.974121
1698668247.917607,0.0,4320.897461,4387.94873,4290.0,4352.179688,4398.974121,4406.153809,4424.615234,4484.102539,4428.461426,4379.230957,4422.563965,4258.333496,4414.743652
1698668247.925415,0.0,4324.230957,4380.897461,4299.487305,4353.589844,4399.615234,4407.05127,4422.307617,4478.333496,4427.436035,4377.307617,4425.897461,4249.615234,4416.025879
1698668247.933223,0.0,4316.538574,4383.205078,4293.717773,4352.94873,4400.641113,4412.179688,4422.307617,4482.307617,4429.102539,4372.820313,4422.94873,4216.282227,4415.897461
1698668247.941032,0.0,4321.922852,4383.333496,4291.794922,4356.538574,4398.205078,4408.205078,4420.769043,4487.307617,4428.461426,4371.025879,4423.077148,4218.974121,4413.461426
1698668247.94884,0.0,4321.153809,4384.487305,4289.230957,4356.794922,4399.102539,4408.589844,4420.256348,4482.179688,4432.307617,4375.769043,4422.179688,4247.436035,4416.153809
1698668247.956648,0.0,4318.974121,4386.794922,4291.538574,4354.743652,4401.410156,4411.922852,4422.179688,4478.461426,4428.461426,4374.871582,4420.641113,4267.179688,4417.563965
1698668247.964456,0.0,4318.974121,4382.307617,4299.487305,4357.436035,4398.205078,4409.230957,4420.384766,4481.922852,4427.436035,4375.384766,4423.333496,4263.974121,4412.692383
1698668247.972264,0.0,4315.641113,4386.153809,4291.153809,4352.563965,4396.666504,4410.897461,4423.333496,4485.0,4433.205078,4374.230957,4420.384766,4207.94873,4413.846191
1698668247.980073,0.0,4323.077148,4383.461426,4293.461426,4350.256348,4397.692383,4407.307617,4425.256348,4485.384766,4429.743652,4371.538574,4424.358887,4194.743652,4416.666504
1698668247.987881,0.0,4323.077148,4379.487305,4293.846191,4355.256348,4398.589844,4406.794922,4424.102539,4484.487305,4428.846191,4378.205078,4426.410156,4250.512695,4417.179688
1698668247.995689,0.0,4319.230957,4380.769043,4289.615234,4356.282227,4399.487305,4412.05127,4423.461426,4482.307617,4427.692383,4378.205078,4418.461426,4284.230957,4417.94873
1698668248.003497,0.0,4321.282227,4379.358887,4297.179688,4356.282227,4398.205078,4407.820313,4420.0,4483.589844,4427.05127,4373.717773,4418.077148,4267.179688,4412.94873
1698668248.011305,0.0,4317.820313,4383.974121,4292.820313,4353.974121,4397.94873,4407.692383,4422.436035,4485.128418,4430.512695,4373.333496,4420.384766,4201.922852,4412.05127
1698668248.019114,0.0,4320.512695,4379.743652,4294.615234,4354.871582,4398.846191,4407.820313,4421.410156,4479.230957,4430.0,4369.743652,4422.94873,4180.897461,4413.461426
1698668248.026922,0.0,4320.897461,4378.717773,4296.410156,4357.94873,4397.563965,4406.025879,4419.230957,4476.666504,4430.769043,4372.05127,4419.615234,4244.487305,4410.897461
1698668248.03473,0.0,4318.333496,4382.179688,4291.153809,4354.487305,4396.794922,4410.0,4426.282227,4481.025879,4427.307617,4375.0,4415.512695,4294.102539,4411.794922
1698668248.042538,0.0,4321.153809,4378.589844,4300.641113,4354.743652,4398.589844,4409.743652,4423.333496,4479.487305,4424.743652,4375.512695,4419.615234,4278.589844,4413.077148
1698668248.050346,0.0,4316.153809,4384.102539,4295.384766,4357.563965,4399.743652,4409.615234,4420.769043,4477.820313,4432.05127,4375.128418,4416.538574,4211.025879,4412.692383
1698668248.058155,0.0,4318.717773,4382.563965,4291.410156,4356.538574,4398.077148,4410.0,4424.358887,4481.794922,4431.410156,4371.153809,4417.94873,4171.794922,4412.436035
1698668248.065963,0.0,4322.307617,4380.128418,4297.820313,4353.461426,4397.179688,4411.410156,4424.743652,4482.179688,4427.179688,4373.461426,4423.333496,4230.128418,4414.871582
1698668248.073771,0.0,4315.769043,4384.615234,4290.256348,4348.974121,4397.563965,4413.077148,4425.0,4481.794922,4427.05127,4375.769043,4416.922852,4293.461426,4415.256348
1698668248.08158,0.0,4319.358887,4381.666504,4294.358887,4355.384766,4398.846191,4407.820313,4421.666504,4481.153809,4427.563965,4374.743652,4419.871582,4285.256348,4411.538574
1698668248.089388,0.0,4318.077148,4384.230957,4295.128418,4359.230957,4401.922852,4407.05127,4420.0,4479.615234,4430.256348,4376.153809,4422.563965,4216.153809,4412.05127
1698668248.097196,0.0,4317.179688,4385.512695,4288.974121,4352.179688,4401.410156,4409.102539,4421.666504,4482.307617,4426.153809,4373.589844,4416.538574,4171.282227,4414.615234
1698668248.105004,0.0,4321.666504,4380.769043,4293.846191,4352.820313,4398.589844,4409.358887,4422.307617,4484.487305,4426.922852,4374.871582,4420.641113,4229.871582,4416.410156
1698668248.112812,0.0,4317.563965,4380.641113,4291.922852,4352.307617,4398.717773,4409.871582,4423.717773,4484.230957,4432.94873,4373.846191,4422.307617,4289.102539,4413.333496
1698668248.120621,0.0,4318.589844,4380.641113,4297.05127,4350.897461,4400.0,4406.666504,4419.230957,4482.820313,4430.0,4370.384766,4418.974121,4281.153809,4409.230957
1698668248.128429,0.0,4318.077148,4384.615234,4296.153809,4352.179688,4400.256348,4408.717773,4420.0,4480.0,4428.589844,4374.487305,4416.922852,4225.897461,4414.102539
1698668248.136237,0.0,4317.820313,4385.384766,4289.615234,4350.897461,4400.128418,4411.282227,4427.563965,4480.512695,4428.717773,4374.743652,4416.666504,4181.922852,4415.256348
1698668248.144045,0.0,4317.436035,4378.461426,4296.025879,4353.077148,4401.153809,4407.820313,4423.205078,4478.974121,4430.384766,4374.615234,4420.0,4226.410156,4412.05127
1698668248.151853,0.0,4314.230957,4383.589844,4292.563965,4351.666504,4402.436035,4409.615234,4421.794922,4477.179688,4430.641113,4373.717773,4416.794922,4271.153809,4412.179688
1698668248.159662,0.0,4323.077148,4385.769043,4294.615234,4352.436035,4399.743652,4409.230957,4425.128418,4480.512695,4425.256348,4371.153809,4419.871582,4277.563965,4411.282227
1698668248.16747,0.0,4320.384766,4381.666504,4295.256348,4357.179688,4398.461426,4407.820313,4421.922852,4480.256348,4428.333496,4376.922852,4420.769043,4244.487305,4412.94873
1698668248.175278,0.0,4314.615234,4383.589844,4286.794922,4355.897461,4400.641113,4410.128418,4422.307617,4481.666504,4429.743652,4375.769043,4414.487305,4188.333496,4413.974121
1698668248.183086,0.0,4321.410156,4383.461426,4293.974121,4355.128418,4400.769043,4406.794922,4422.436035,4485.384766,4427.179688,4371.922852,4422.692383,4217.05127,4412.179688
1698668248.190894,0.0,4319.230957,4387.692383,4292.179688,4355.384766,4401.025879,4408.077148,4421.538574,4481.794922,4427.436035,4372.692383,4422.563965,4269.743652,4411.410156
1698668248.198703,0.0,4318.589844,4383.717773,4290.512695,4357.307617,4401.153809,4408.846191,4421.922852,4476.025879,4425.0,4371.282227,4416.666504,4272.820313,4411.410156
1698668248.206511,0.0,4316.282227,4382.94873,4292.563965,4357.307617,4399.615234,4404.102539,4423.333496,4476.666504,4430.128418,4373.589844,4417.94873,4243.205078,4413.333496
1698668248.214319,0.0,4315.128418,4386.666504,4283.846191,4351.282227,4400.256348,4405.128418,4424.487305,4483.974121,4432.307617,4373.333496,4415.769043,4205.512695,4414.102539
1698668248.222127,0.0,4323.589844,4379.871582,4291.538574,4354.487305,4400.0,4406.538574,4418.205078,4485.769043,4427.05127,4373.077148,4416.666504,4224.487305,4411.922852
1698668248.229936,0.0,4320.769043,4385.512695,4295.641113,4358.333496,4398.077148,4408.205078,4419.743652,4480.256348,4428.846191,4375.769043,4415.512695,4252.692383,4411.538574
1698668248.237744,0.0,4319.230957,4385.0,4291.025879,4355.0,4398.461426,4405.256348,4424.102539,4479.487305,4428.333496,4373.333496,4416.666504,4257.307617,4412.436035
1698668248.245552,0.0,4317.307617,4377.94873,4290.256348,4355.512695,4400.0,4403.589844,4420.384766,4483.461426,4429.871582,4375.512695,4418.333496,4251.025879,4413.461426
1698668248.25336,0.0,4314.358887,4381.922852,4287.307617,4353.717773,4398.974121,4410.897461,4423.205078,4482.820313,4429.615234,4375.128418,4413.717773,4218.974121,4412.436035
1698668248.261169,0.0,4325.897461,4381.922852,4298.974121,4354.102539,4397.436035,4409.102539,4423.974121,4476.153809,4426.666504,4371.282227,4422.179688,4223.077148,4410.0
1698668248.268977,0.0,4324.230957,4383.589844,4298.461426,4357.179688,4398.589844,4405.641113,4422.820313,4476.666504,4432.94873,4373.077148,4425.897461,4249.487305,4412.94873
1698668248.276785,0.0,4315.384766,4380.897461,4292.05127,4357.436035,4399.230957,4406.538574,4423.846191,4481.922852,4431.922852,4372.94873,4420.769043,4253.333496,4414.615234
1698668248.284593,0.0,4314.615234,4378.717773,4295.641113,4357.563965,4398.974121,4406.666504,4421.538574,4480.897461,4428.333496,4374.871582,4422.820313,4249.743652,4413.717773
1698668248.292401,0.0,4313.205078,4384.615234,4289.487305,4351.025879,4401.666504,4410.897461,4422.820313,4479.487305,4428.461426,4374.743652,4417.436035,4225.641113,4412.94873
1698668248.30021,0.0,4320.769043,4378.717773,4295.512695,4351.538574,4401.538574,4409.743652,4421.153809,4479.743652,4427.05127,4373.077148,4414.743652,4223.974121,4410.769043
1698668248.308018,0.0,4322.436035,4376.922852,4296.153809,4356.410156,4398.077148,4406.410156,4419.487305,4476.153809,4430.897461,4376.153809,4417.820313,4247.94873,4411.666504
1698668248.315826,0.0,4322.179688,4383.717773,4288.077148,4352.94873,4398.333496,4407.436035,4423.974121,4476.410156,4429.615234,4374.230957,4417.179688,4260.769043,4411.538574
1698668248.323634,0.0,4324.230957,4379.230957,4294.743652,4353.846191,4400.512695,4407.563965,4425.0,4482.563965,4426.666504,4376.922852,4419.102539,4260.512695,4411.153809
1698668248.331442,0.0,4318.589844,4381.410156,4292.820313,4355.641113,4401.922852,4412.05127,4421.153809,4482.436035,4429.743652,4379.230957,4416.025879,4217.692383,4410.128418
1698668248.339251,0.0,4324.358887,4385.641113,4295.0,4354.743652,4401.025879,4410.769043,4418.974121,4479.102539,4429.871582,4374.615234,4416.282227,4198.974121,4407.307617
1698668248.347059,0.0,4323.205078,4381.410156,4296.794922,4353.333496,4398.846191,4407.307617,4423.846191,4483.077148,4430.256348,4376.666504,4419.487305,4245.384766,4410.384766
1698668248.354867,0.0,4313.974121,4380.769043,4288.589844,4352.179688,4399.743652,4410.256348,4426.666504,4483.461426,4428.333496,4375.128418,4417.436035,4274.230957,4413.077148
1698668248.362675,0.0,4319.102539,4378.205078,4294.102539,4358.077148,4402.179688,4408.077148,4421.666504,4476.666504,4426.922852,4372.94873,4418.974121,4269.487305,4408.333496
1698668248.370484,0.0,4321.025879,4383.333496,4293.205078,4357.179688,4401.282227,4407.563965,4422.179688,4476.410156,4427.563965,4374.487305,4414.871582,4224.102539,4408.717773
1698668248.378292,0.0,4321.025879,4386.025879,4291.410156,4353.461426,4398.205078,4408.589844,4422.692383,4480.128418,4424.358887,4372.436035,4414.487305,4197.692383,4413.589844
1698668248.3861,0.0,4315.897461,4378.717773,4293.461426,4353.461426,4397.436035,4409.487305,4420.512695,4480.128418,4427.307617,4374.358887,4420.641113,4240.256348,4414.615234
1698668248.393908,0.0,4308.205078,4382.307617,4286.282227,4351.794922,4399.743652,4410.769043,4423.846191,4479.871582,4426.794922,4373.974121,4415.384766,4265.769043,4414.102539
1698668248.401716,0.0,4315.128418,4384.871582,4289.743652,4356.153809,4400.0,4405.0,4421.410156,4480.641113,4424.102539,4372.179688,4415.897461,4258.589844,4413.717773
1698668248.409525,0.0,4319.615234,4383.717773,4288.077148,4358.717773,4400.384766,4407.436035,4421.282227,4482.179688,4429.230957,4374.230957,4418.846191,4228.974121,4414.230957
1698668248.417333,0.0,4319.487305,4381.666504,4287.692383,4354.358887,4401.538574,4413.717773,4424.487305,4481.922852,4427.179688,4373.461426,4416.153809,4210.512695,4413.333496
1698668248.425141,0.0,4316.922852,4381.410156,4292.179688,4352.05127,4399.871582,4410.256348,4420.512695,4482.179688,4427.563965,4377.05127,4416.794922,4242.05127,4413.333496
1698668248.432949,0.0,4312.692383,4387.820313,4282.436035,4351.666504,4399.102539,4411.025879,4424.487305,4484.102539,4432.05127,4374.743652,4415.0,4252.436035,4411.538574
1698668248.440758,0.0,4319.487305,4383.205078,4289.487305,4354.358887,4400.512695,4411.666504,4426.025879,4482.307617,4430.512695,4371.922852,4419.102539,4247.179688,4408.461426
1698668248.448566,0.0,4319.871582,4382.94873,4293.974121,4354.871582,4401.410156,4408.333496,4421.794922,4478.974121,4430.512695,4379.743652,4420.512695,4244.615234,4411.282227
1698668248.456374,0.0,4319.871582,4387.94873,4288.974121,4353.077148,4400.769043,4406.794922,4424.871582,4480.897461,4427.307617,4376.538574,4416.410156,4231.025879,4412.436035
1698668248.464182,0.0,4322.307617,4384.615234,4296.538574,4356.025879,4399.358887,4406.282227,4424.102539,4481.794922,4428.205078,4372.563965,4419.102539,4242.692383,4410.256348
1698668248.47199,0.0,4313.974121,4383.589844,4292.05127,4353.717773,4399.230957,4409.487305,4425.128418,4479.358887,4430.769043,4375.0,4415.512695,4248.205078,4409.358887
1698668248.479799,0.0,4317.563965,4381.666504,4294.871582,4352.692383,4400.641113,4408.077148,4426.410156,4478.717773,4426.922852,4373.205078,4415.128418,4249.358887,4408.589844
1698668248.487607,0.0,4320.384766,4384.871582,4300.769043,4356.153809,4399.230957,4406.282227,4423.205078,4480.512695,4429.743652,4373.974121,4417.179688,4246.153809,4411.282227
1698668248.495415,0.0,4317.692383,4387.179688,4292.820313,4353.077148,4396.794922,4409.743652,4425.256348,4483.205078,4429.487305,4371.410156,4413.717773,4221.410156,4411.666504
1698668248.503223,0.0,4323.077148,4383.077148,4294.743652,4355.512695,4398.846191,4408.333496,4424.358887,4481.282227,4427.692383,4370.256348,4420.0,4232.179688,4411.410156
1698668248.511032,0.0,4317.05127,4386.282227,4290.256348,4354.102539,4401.410156,4410.512695,4423.717773,4477.436035,4432.05127,4372.436035,4418.077148,4253.846191,4412.179688
1698668248.51884,0.0,4315.897461,4385.256348,4290.769043,4348.717773,4400.897461,4411.794922,4423.205078,4479.230957,4429.871582,4373.077148,4415.0,4269.358887,4409.358887
1698668248.526648,0.0,4318.974121,4382.563965,4296.538574,4352.563965,4400.256348,4407.820313,4422.820313,4481.025879,4429.358887,4376.025879,4420.384766,4255.256348,4412.820313
1698668248.534456,0.0,4317.307617,4381.922852,4288.333496,4354.743652,4401.025879,4407.05127,4427.692383,4480.897461,4429.358887,4373.333496,4418.077148,4199.358887,4413.077148
1698668248.542264,0.0,4320.512695,4380.384766,4291.025879,4356.794922,4400.769043,4406.666504,4423.717773,4480.384766,4429.615234,4374.871582,4420.897461,4213.717773,4409.743652
1698668248.550073,0.0,4316.666504,4387.820313,4290.512695,4355.128418,4401.794922,4409.743652,4419.487305,4480.0,4431.282227,4378.205078,4420.384766,4267.94873,4412.692383
1698668248.557881,0.0,4318.589844,4385.512695,4290.256348,4352.307617,4402.05127,4410.0,4423.974121,4481.922852,4427.436035,4370.897461,4415.128418,4283.846191,4410.256348
1698668248.565689,0.0,4318.461426,4378.846191,4296.153809,4356.410156,4399.487305,4406.410156,4425.128418,4481.410156,4429.487305,4372.05127,4418.077148,4256.922852,4410.0
1698668248.573497,0.0,4310.384766,4385.384766,4285.769043,4355.0,4400.512695,4411.153809,4424.743652,4481.282227,4431.922852,4376.025879,4418.333496,4197.94873,4413.461426
1698668248.581305,0.0,4316.153809,4383.461426,4285.641113,4353.974121,4399.743652,4411.153809,4422.179688,4482.307617,4427.307617,4374.615234,4421.153809,4204.487305,4412.436035
1698668248.589114,0.0,4317.436035,4383.846191,4290.256348,4355.512695,4399.615234,4408.461426,4423.333496,4477.692383,4428.333496,4374.230957,4419.487305,4260.769043,4411.410156
1698668248.596922,0.0,4317.436035,4384.230957,4292.307617,4353.717773,4402.436035,4408.846191,4427.05127,4475.256348,4429.743652,4371.538574,4415.897461,4287.436035,4410.256348
1698668248.60473,0.0,4321.282227,4380.0,4298.077148,4354.102539,4401.538574,4408.461426,4422.820313,4477.179688,4430.256348,4373.461426,4422.179688,4263.077148,4411.410156
1698668248.612538,0.0,4318.846191,4385.256348,4289.743652,4352.05127,4400.512695,4412.436035,4421.153809,4478.205078,4430.897461,4373.846191,4420.128418,4199.871582,4411.025879
1698668248.620347,0.0,4320.256348,4381.794922,4289.743652,4350.641113,4401.922852,4410.641113,4422.179688,4480.769043,4429.230957,4372.307617,4418.974121,4196.153809,4409.230957
1698668248.628155,0.0,4317.692383,4381.922852,4288.717773,4351.282227,4402.692383,4409.230957,4422.436035,4484.615234,4432.436035,4376.025879,4421.410156,4254.743652,4413.589844
1698668248.635963,0.0,4318.717773,4388.589844,4284.743652,4351.666504,4401.538574,4411.153809,4423.589844,4482.692383,4428.205078,4372.563965,4419.102539,4286.666504,4414.102539
1698668248.643771,0.0,4321.794922,4383.205078,4295.256348,4355.512695,4400.769043,4407.692383,4422.820313,4478.589844,4426.025879,4373.077148,4421.025879,4268.589844,4411.922852
1698668248.65158,0.0,4313.333496,4382.563965,4292.692383,4353.461426,4402.05127,4408.846191,4423.461426,4481.794922,4430.256348,4376.922852,4416.410156,4211.025879,4412.563965
1698668248.659388,0.0,4317.05127,4382.307617,4292.436035,4352.05127,4400.384766,4407.436035,4420.641113,4484.487305,4427.179688,4371.153809,4415.769043,4192.563965,4412.05127
1698668248.667196,0.0,4321.153809,4384.358887,4295.0,4356.538574,4396.410156,4406.666504,4420.897461,4481.282227,4428.846191,4372.05127,4418.333496,4244.358887,4413.333496
1698668248.675004,0.0,4317.692383,4387.692383,4289.230957,4354.230957,4396.153809,4411.153809,4424.871582,4479.871582,4427.179688,4372.692383,4415.384766,4284.358887,4414.230957
1698668248.682812,0.0,4320.256348,4381.410156,4294.230957,4353.461426,4398.846191,4406.666504,4421.282227,4482.307617,4425.641113,4369.743652,4421.410156,4275.128418,4411.282227
1698668248.690621,0.0,4316.538574,4381.794922,4289.871582,4354.102539,4398.205078,4406.282227,4421.538574,4481.538574,4430.512695,4372.307617,4420.512695,4217.820313,4409.743652
1698668248.698429,0.0,4319.358887,4383.717773,4290.0,4354.358887,4397.05127,4410.897461,4421.922852,4477.436035,4427.179688,4373.205078,4417.94873,4185.0,4410.128418
1698668248.706237,0.0,4323.461426,4382.692383,4295.384766,4356.410156,4397.94873,4409.358887,4419.230957,4480.128418,4430.0,4373.461426,4422.179688,4237.436035,4412.692383
1698668248.714045,0.0,4318.846191,4384.743652,4289.487305,4354.615234,4397.820313,4409.102539,4423.461426,4484.230957,4431.282227,4371.153809,4418.846191,4285.641113,4414.102539
1698668248.721853,0.0,4321.410156,4380.897461,4296.153809,4355.641113,4398.077148,4409.102539,4423.205078,4482.307617,4426.794922,4372.820313,4418.846191,4281.922852,4410.897461
1698668248.729662,0.0,4318.333496,4380.384766,4291.794922,4353.333496,4401.282227,4409.487305,4423.077148,4480.641113,4431.282227,4373.333496,4415.769043,4225.128418,4410.512695
1698668248.73747,0.0,4319.358887,4382.692383,4285.128418,4352.692383,4401.538574,4406.666504,4423.077148,4481.538574,4429.615234,4368.461426,4412.820313,4179.358887,4413.077148
1698668248.745278,0.0,4322.436035,4384.615234,4294.487305,4357.179688,4399.230957,4405.769043,4420.0,4483.589844,4426.410156,4373.333496,4418.589844,4230.256348,4412.05127
1698668248.753086,0.0,4317.179688,4388.717773,4290.384766,4352.692383,4399.102539,4411.922852,4424.615234,4483.333496,4430.256348,4374.358887,4415.769043,4282.692383,4408.589844
1698668248.760894,0.0,4321.153809,4382.94873,4292.307617,4353.589844,4399.615234,4407.94873,4424.487305,4479.615234,4431.922852,4371.538574,4415.512695,4286.410156,4409.615234
1698668248.768703,0.0,4319.230957,4382.563965,4291.666504,4358.205078,4400.128418,4403.589844,4420.897461,4477.94873,4431.153809,4375.641113,4416.410156,4235.256348,4412.563965
1698668248.776511,0.0,4317.179688,4388.461426,4287.436035,4352.179688,4400.512695,4409.102539,4423.846191,4479.487305,4426.153809,4373.333496,4413.589844,4171.153809,4411.153809
1698668248.784319,0.0,4320.897461,4383.077148,4295.128418,4351.410156,4400.256348,4410.384766,4422.436035,4480.512695,4428.461426,4373.205078,4419.230957,4215.256348,4411.794922
1698668248.792127,0.0,4317.436035,4383.589844,4289.743652,4354.615234,4402.179688,4411.153809,4423.974121,4482.179688,4431.410156,4374.615234,4419.230957,4285.769043,4412.820313
1698668248.799936,0.0,4321.282227,4383.974121,4291.410156,4356.153809,4401.538574,4409.230957,4426.153809,4483.205078,4424.487305,4370.769043,4418.077148,4295.128418,4409.358887
1698668248.807744,0.0,4321.153809,4384.358887,4295.897461,4354.487305,4398.589844,4407.05127,4424.615234,4483.333496,4426.282227,4372.692383,4418.589844,4239.358887,4407.94873
1698668248.815552,0.0,4317.820313,4387.94873,4290.384766,4351.153809,4399.743652,4408.717773,4425.0,4484.743652,4429.615234,4372.692383,4414.230957,4172.820313,4411.025879
1698668248.82336,0.0,4321.666504,4381.922852,4294.871582,4354.102539,4400.384766,4406.282227,4421.538574,4480.128418,4426.282227,4371.282227,4417.820313,4211.153809,4410.384766
1698668248.831169,0.0,4319.230957,4381.666504,4292.563965,4353.461426,4399.230957,4407.692383,4422.94873,4474.230957,4425.641113,4372.307617,4415.897461,4281.922852,4405.897461
1698668248.838977,0.0,4320.769043,4382.820313,4294.102539,4351.794922,4399.743652,4408.205078,4426.794922,4475.769043,4425.128418,4373.077148,4412.436035,4297.179688,4408.717773
1698668248.846785,0.0,4321.410156,4382.563965,4297.692383,4354.358887,4401.794922,4406.410156,4422.05127,4478.461426,4427.692383,4376.282227,4414.102539,4250.384766,4414.615234
1698668248.854593,0.0,4318.205078,4386.025879,4288.077148,4352.692383,4402.179688,4409.743652,4420.512695,4479.487305,4427.692383,4371.666504,4412.563965,4185.384766,4410.512695
1698668248.862401,0.0,4320.769043,4385.512695,4294.102539,4354.743652,4398.846191,4408.333496,4422.692383,4480.256348,4426.538574,4370.128418,4416.538574,4211.153809,4406.025879
1698668248.87021,0.0,4316.922852,4386.794922,4296.282227,4357.563965,4398.077148,4408.333496,4426.922852,4481.025879,4429.615234,4375.128418,4415.769043,4269.615234,4408.974121
1698668248.878018,0.0,4320.128418,4381.538574,4291.794922,4356.538574,4400.384766,4408.589844,4425.641113,4480.256348,4426.410156,4372.692383,4417.563965,4293.205078,4408.846191
1698668248.885826,0.0,4322.436035,4382.692383,4295.128418,4356.538574,4400.641113,4408.461426,4418.846191,4478.205078,4427.820313,4374.102539,4425.641113,4264.487305,4410.256348
1698668248.893634,0.0,4315.256348,4389.871582,4288.717773,4353.846191,4400.512695,4411.666504,4423.333496,4480.128418,4430.256348,4374.358887,4419.615234,4189.102539,4411.666504
1698668248.901442,0.0,4322.307617,4382.307617,4292.307617,4355.384766,4400.384766,4409.871582,4423.846191,4481.025879,4426.282227,4372.692383,4417.307617,4191.282227,4410.897461
1698668248.909251,0.0,4324.487305,4382.05127,4293.077148,4356.410156,4400.512695,4411.282227,4419.358887,4480.0,4426.538574,4375.512695,4419.615234,4262.820313,4412.307617
1698668248.917059,0.0,4319.743652,4384.871582,4289.487305,4351.666504,4402.307617,4412.436035,4421.922852,4477.94873,4424.358887,4371.794922,4418.717773,4296.538574,4407.307617
1698668248.924867,0.0,4318.205078,4383.205078,4295.0,4354.487305,4401.153809,4408.589844,4421.025879,4474.358887,4427.436035,4372.563965,4420.641113,4265.256348,4405.512695
1698668248.932675,0.0,4315.256348,4384.358887,4286.538574,4354.743652,4397.563965,4410.897461,4422.692383,4477.05127,4431.025879,4374.230957,4415.512695,4199.871582,4409.487305
1698668248.940483,0.0,4323.461426,4381.153809,4288.589844,4353.717773,4398.461426,4408.333496,4425.128418,4481.410156,4426.282227,4372.692383,4415.769043,4195.641113,4409.743652
1698668248.948292,0.0,4322.692383,4385.0,4292.692383,4354.743652,4402.820313,4404.871582,4422.94873,4478.077148,4428.717773,4375.897461,4419.743652,4251.922852,4413.846191
1698668248.9561,0.0,4316.922852,4387.436035,4288.589844,4352.307617,4402.179688,4407.94873,4422.563965,4479.102539,4429.743652,4372.307617,4415.641113,4289.102539,4413.077148
1698668248.963908,0.0,4321.410156,4382.307617,4295.128418,4354.230957,4399.102539,4406.666504,4422.307617,4484.358887,4430.0,4371.282227,4418.846191,4273.974121,4411.410156
1698668248.971717,0.0,4319.871582,4383.333496,4289.871582,4352.820313,4399.102539,4408.717773,4423.717773,4482.94873,4431.282227,4373.846191,4417.94873,4214.743652,4414.230957
1698668248.979525,0.0,4321.538574,4382.05127,4291.153809,4353.717773,4398.974121,4410.512695,4421.410156,4480.384766,4425.769043,4370.512695,4414.615234,4195.128418,4412.179688
1698668248.987333,0.0,4318.589844,4383.846191,4294.487305,4355.384766,4399.871582,4409.615234,4421.666504,4481.538574,4427.692383,4372.179688,4416.025879,4245.641113,4412.692383
1698668248.995141,0.0,4315.512695,4387.94873,4288.589844,4349.743652,4400.512695,4410.897461,4427.94873,4483.077148,4431.410156,4372.05127,4415.769043,4282.436035,4412.179688
1698668249.002949,0.0,4322.179688,4382.436035,4295.128418,4353.205078,4397.94873,4408.717773,4425.0,4478.333496,4429.102539,4372.307617,4417.692383,4272.179688,4409.230957
1698668249.010758,0.0,4319.615234,4382.179688,4291.153809,4356.282227,4400.256348,4411.025879,4423.717773,4473.717773,4427.563965,4375.641113,4412.563965,4219.102539,4411.922852
1698668249.018566,0.0,4321.025879,4381.153809,4290.128418,4353.846191,4402.436035,4410.256348,4426.153809,4479.102539,4425.384766,4372.05127,4413.974121,4191.025879,4411.410156
1698668249.026374,0.0,4320.512695,4381.794922,4294.615234,4356.794922,4398.589844,4407.307617,4423.589844,4482.436035,4427.307617,4371.794922,4419.487305,4239.743652,4408.846191
1698668249.034182,0.0,4315.0,4389.487305,4288.974121,4356.410156,4398.077148,4410.512695,4423.461426,4477.94873,4428.717773,4372.05127,4412.05127,4277.94873,4411.153809
1698668249.04199,0.0,4319.743652,4384.487305,4294.487305,4355.0,4400.256348,4410.0,4421.794922,4476.282227,4427.820313,4370.897461,4413.717773,4276.282227,4413.461426
1698668249.049799,0.0,4318.333496,4383.077148,4293.077148,4356.153809,4401.410156,4410.256348,4423.205078,4479.230957,4429.615234,4371.922852,4415.641113,4226.282227,4410.128418
1698668249.057607,0.0,4318.846191,4383.846191,4290.128418,4355.897461,4400.128418,4410.0,4425.512695,4478.333496,4425.897461,4371.922852,4414.358887,4184.487305,4406.282227
1698668249.065415,0.0,4320.769043,4382.307617,4296.282227,4353.205078,4397.563965,4407.820313,4421.282227,4476.666504,4426.666504,4375.256348,4417.563965,4235.256348,4406.794922
1698668249.073223,0.0,4318.077148,4389.615234,4289.487305,4350.897461,4398.846191,4410.0,4422.563965,4478.974121,4428.589844,4373.205078,4412.94873,4280.512695,4409.487305
1698668249.081031,0.0,4320.769043,4383.589844,4289.102539,4356.538574,4400.512695,4407.179688,4424.871582,4479.358887,4425.128418,4371.922852,4415.384766,4272.692383,4410.256348
1698668249.08884,0.0,4317.563965,4382.692383,4292.820313,4357.563965,4400.256348,4406.410156,4424.871582,4480.256348,4427.436035,4375.256348,4418.461426,4233.717773,4410.384766
1698668249.096648,0.0,4316.666504,4390.641113,4293.717773,4352.563965,4399.871582,4409.230957,4423.461426,4483.846191,4424.871582,4371.794922,4415.641113,4203.333496,4408.717773
1698668249.104456,0.0,4319.615234,4385.128418,4295.512695,4354.871582,4397.692383,4407.692383,4420.641113,4483.846191,4424.102539,4373.205078,4417.179688,4238.589844,4405.769043
1698668249.112264,0.0,4313.333496,4384.487305,4288.846191,4353.333496,4394.871582,4411.153809,4425.512695,4480.128418,4429.487305,4372.436035,4412.563965,4265.769043,4408.589844
1698668249.120072,0.0,4314.615234,4384.102539,4294.230957,4353.205078,4396.922852,4410.0,4426.538574,4480.128418,4427.692383,4367.94873,4413.333496,4260.0,4411.153809
1698668249.127881,0.0,4317.179688,4381.538574,4293.974121,4355.512695,4401.410156,4407.179688,4424.358887,4483.333496,4426.922852,4372.692383,4417.307617,4241.922852,4411.410156
1698668249.135689,0.0,4318.589844,4383.461426,4284.358887,4353.717773,4401.538574,4411.153809,4425.641113,4479.871582,4425.384766,4370.769043,4414.230957,4219.743652,4408.717773
1698668249.143497,0.0,4322.179688,4383.974121,4295.384766,4356.282227,4401.153809,4410.256348,4422.563965,4476.153809,4425.512695,4367.692383,4415.384766,4239.871582,4405.256348
1698668249.151306,0.0,4315.256348,4385.897461,4295.512695,4355.128418,4402.692383,4410.769043,4422.563965,4478.846191,4426.922852,4372.94873,4414.487305,4255.512695,4407.436035
1698668249.159114,0.0,4316.922852,4384.743652,4290.897461,4354.615234,4401.794922,4410.128418,4423.717773,4479.871582,4425.0,4373.717773,4415.256348,4245.641113,4410.897461
1698668249.166922,0.0,4320.384766,4383.461426,4291.666504,4358.077148,4398.846191,4407.307617,4422.436035,4477.94873,4428.077148,4373.461426,4416.538574,4243.846191,4410.128418
1698668249.17473,0.0,4320.256348,4385.128418,4289.871582,4353.333496,4398.077148,4406.025879,4422.692383,4481.025879,4426.153809,4371.666504,4413.717773,4244.871582,4407.05127
1698668249.182538,0.0,4326.153809,4385.128418,4298.589844,4354.358887,4400.384766,4403.974121,4422.179688,4482.820313,4422.94873,4371.922852,4420.769043,4256.025879,4409.102539
1698668249.190347,0.0,4317.820313,4387.692383,4293.461426,4356.025879,4403.077148,4407.05127,4423.461426,4478.333496,4427.563965,4373.974121,4418.333496,4237.692383,4410.897461
1698668249.198155,0.0,4316.153809,4385.897461,4289.358887,4352.563965,4400.769043,4408.974121,4421.794922,4475.769043,4426.025879,4370.256348,4410.0,4214.743652,4408.205078
1698668249.205963,0.0,4323.589844,4384.871582,4297.179688,4354.615234,4396.153809,4408.461426,4417.692383,4477.05127,4425.769043,4371.666504,4414.230957,4242.820313,4411.410156
1698668249.213771,0.0,4321.025879,4391.538574,4292.563965,4353.717773,4398.333496,4411.922852,4422.563965,4481.282227,4428.077148,4372.307617,4414.487305,4262.820313,4412.307617
1698668249.221579,0.0,4321.794922,4388.205078,4295.897461,4353.846191,4400.0,4410.512695,4424.615234,4482.179688,4426.282227,4371.025879,4414.487305,4260.128418,4407.563965
1698668249.229388,0.0,4320.256348,4383.846191,4293.205078,4355.128418,4397.307617,4409.871582,4423.077148,4480.128418,4426.922852,4372.563965,4413.717773,4234.487305,4407.692383
1698668249.237196,0.0,4317.436035,4382.820313,4290.641113,4352.307617,4398.846191,4410.128418,4424.615234,4482.820313,4426.538574,4370.0,4412.820313,4213.205078,4409.743652
1698668249.245004,0.0,4316.794922,4386.282227,4301.410156,4353.846191,4401.282227,4405.769043,4420.384766,4482.179688,4427.05127,4371.922852,4416.666504,4240.128418,4410.769043
1698668249.252812,0.0,4316.282227,4394.358887,4293.717773,4355.384766,4399.487305,4408.205078,4422.05127,4479.358887,4425.897461,4370.769043,4412.436035,4254.102539,4409.230957
1698668249.26062,0.0,4322.307617,4385.0,4290.641113,4356.282227,4398.205078,4409.871582,4425.897461,4480.128418,4425.769043,4368.461426,4414.230957,4252.05127,4408.077148
1698668249.268429,0.0,4320.512695,4379.871582,4294.743652,4355.641113,4400.384766,4408.077148,4422.563965,4480.0,4432.94873,4375.384766,4415.0,4248.717773,4410.512695
1698668249.276237,0.0,4316.153809,4386.025879,4291.410156,4351.282227,4400.641113,4410.128418,4423.205078,4479.230957,4428.205078,4373.846191,4410.256348,4233.333496,4407.692383
1698668249.284045,0.0,4318.846191,4388.333496,4296.410156,4351.794922,4398.974121,4410.384766,4425.128418,4478.974121,4423.077148,4370.256348,4416.922852,4241.794922,4405.897461
1698668249.291853,0.0,4316.794922,4389.102539,4291.922852,4351.538574,4400.512695,4411.410156,4425.769043,4476.538574,4428.077148,4373.717773,4413.974121,4245.512695,4410.0
1698668249.299662,0.0,4319.102539,4382.179688,4290.897461,4350.897461,4401.025879,4408.846191,4421.538574,4476.410156,4426.410156,4375.256348,4409.358887,4240.769043,4411.410156
1698668249.30747,0.0,4318.846191,4386.025879,4293.974121,4352.563965,4398.717773,4408.846191,4420.769043,4479.487305,4427.436035,4375.512695,4414.102539,4245.128418,4412.436035
1698668249.315278,0.0,4316.282227,4389.615234,4289.871582,4352.179688,4398.077148,4412.436035,4425.512695,4480.256348,4429.230957,4372.692383,4413.077148,4242.692383,4409.871582
1698668249.323086,0.0,4320.384766,4381.666504,4295.384766,4354.102539,4399.358887,4408.077148,4420.641113,4476.282227,4426.794922,4373.717773,4412.307617,4250.128418,4408.974121
1698668249.330895,0.0,4316.282227,4387.307617,4293.589844,4353.077148,4399.358887,4408.333496,4421.025879,4474.102539,4426.666504,4373.077148,4410.384766,4238.077148,4411.538574
1698668249.338703,0.0,4315.0,4390.128418,4293.205078,4352.179688,4399.102539,4410.384766,4426.666504,4476.410156,4424.871582,4368.333496,4412.563965,4231.538574,4407.05127
1698668249.346511,0.0,4313.205078,4388.333496,4296.666504,4356.666504,4400.384766,4406.410156,4424.358887,4476.410156,4427.94873,4372.563965,4415.384766,4249.743652,4408.461426
1698668249.354319,0.0,4312.436035,4389.358887,4289.615234,4354.102539,4400.769043,4407.307617,4423.205078,4476.666504,4429.230957,4373.333496,4410.256348,4237.692383,4413.846191
1698668249.362127,0.0,4321.794922,4384.230957,4294.358887,4353.974121,4400.512695,4408.333496,4421.410156,4477.692383,4426.666504,4370.384766,4412.94873,4234.743652,4410.769043
1698668249.369936,0.0,4318.205078,4383.461426,4292.05127,4356.794922,4400.256348,4407.820313,4423.205078,4476.794922,4428.846191,4372.307617,4412.692383,4250.0,4407.820313
1698668249.377744,0.0,4318.077148,4382.820313,4289.102539,4355.128418,4398.461426,4407.436035,4427.436035,4475.641113,4426.666504,4372.05127,4413.333496,4257.94873,4408.077148
1698668249.385552,0.0,4320.128418,4380.897461,4297.820313,4355.512695,4397.436035,4407.179688,4427.692383,4473.846191,4428.717773,4375.0,4418.974121,4254.230957,4410.384766
1698668249.39336,0.0,4316.538574,4385.512695,4292.436035,4353.717773,4400.641113,4410.769043,4426.282227,4475.769043,4430.256348,4374.871582,4412.307617,4220.256348,4410.0
1698668249.401168,0.0,4323.717773,4384.487305,4291.666504,4354.230957,4399.871582,4409.102539,4420.897461,4478.333496,4425.384766,4370.897461,4412.307617,4222.307617,4407.563965
1698668249.408977,0.0,4319.487305,4384.102539,4292.692383,4353.205078,4397.692383,4407.692383,4421.538574,4477.94873,4427.563965,4372.307617,4415.641113,4252.05127,4409.487305
1698668249.416785,0.0,4317.179688,4387.94873,4291.282227,4351.153809,4400.641113,4407.692383,4426.922852,4476.794922,4427.820313,4372.179688,4412.436035,4256.153809,4410.384766
1698668249.424593,0.0,4324.743652,4384.487305,4296.538574,4356.410156,4399.230957,4406.025879,4424.102539,4476.538574,4428.589844,4373.589844,4414.230957,4253.974121,4409.358887
1698668249.432401,0.0,4318.333496,4388.333496,4290.641113,4354.743652,4396.666504,4409.358887,4421.282227,4476.794922,4429.102539,4372.820313,4411.025879,4229.743652,4409.487305
1698668249.44021,0.0,4315.641113,4390.256348,4292.436035,4353.717773,4399.102539,4408.846191,4422.436035,4475.641113,4424.615234,4370.641113,4410.897461,4222.05127,4410.128418
1698668249.448018,0.0,4318.205078,4387.820313,4295.384766,4356.794922,4400.384766,4407.820313,4425.769043,4476.025879,4428.205078,4375.384766,4413.717773,4248.333496,4412.563965
1698668249.455826,0.0,4320.128418,4390.769043,4290.0,4355.0,4399.487305,4408.589844,4427.05127,4475.256348,4427.692383,4371.666504,4413.717773,4258.333496,4411.666504
1698668249.463634,0.0,4320.256348,4388.077148,4292.692383,4354.871582,4399.487305,4405.128418,4421.538574,4473.333496,4426.922852,4368.974121,4418.846191,4252.563965,4409.615234
1698668249.471442,0.0,4315.0,4390.0,4290.897461,4353.205078,4401.538574,4406.922852,4421.666504,4472.05127,4430.256348,4372.820313,4415.128418,4230.256348,4411.153809
1698668249.479251,0.0,4317.563965,4386.922852,4293.974121,4353.846191,4400.897461,4407.436035,4423.974121,4472.436035,4425.897461,4372.179688,4412.179688,4223.333496,4410.384766
1698668249.487059,0.0,4318.461426,4383.205078,4291.538574,4356.794922,4398.589844,4407.563965,4420.641113,4475.769043,4425.897461,4372.94873,4415.769043,4248.589844,4408.717773
1698668249.494867,0.0,4317.563965,4388.717773,4281.922852,4355.0,4398.333496,4410.384766,4422.307617,4476.794922,4429.102539,4371.153809,4412.692383,4254.487305,4411.282227
1698668249.502675,0.0,4322.05127,4385.384766,4293.717773,4355.897461,4398.974121,4405.512695,4426.282227,4477.179688,4427.820313,4372.436035,4412.94873,4248.846191,4412.692383
1698668249.510484,0.0,4317.05127,4386.282227,4295.384766,4356.025879,4400.897461,4406.025879,4428.717773,4479.230957,4426.282227,4375.512695,4411.282227,4235.256348,4410.512695
1698668249.518292,0.0,4317.179688,4387.05127,4290.641113,4354.871582,4401.922852,4410.0,4425.256348,4476.666504,4424.230957,4372.692383,4409.230957,4227.307617,4409.102539
1698668249.5261,0.0,4321.538574,4383.205078,4295.0,4357.307617,4401.282227,4406.666504,4421.410156,4475.128418,4427.94873,4374.102539,4410.641113,4242.94873,4411.153809
1698668249.533908,0.0,4317.436035,4386.666504,4290.897461,4354.487305,4401.153809,4408.077148,4426.153809,4476.922852,4427.94873,4372.05127,4409.230957,4239.743652,4410.128418
1698668249.541716,0.0,4316.794922,4388.974121,4293.077148,4352.820313,4401.153809,4410.256348,4421.025879,4474.487305,4423.974121,4369.487305,4412.563965,4238.205078,4408.974121
1698668249.549525,0.0,4314.358887,4389.871582,4290.897461,4352.94873,4400.512695,4409.230957,4418.077148,4473.589844,4428.333496,4373.974121,4411.282227,4240.641113,4412.94873
1698668249.557333,0.0,4316.538574,4387.436035,4287.820313,4351.666504,4400.897461,4406.153809,4426.153809,4475.897461,4427.436035,4372.94873,4409.615234,4235.897461,4412.307617
1698668249.565141,0.0,4319.102539,4388.077148,4293.717773,4354.487305,4401.282227,4404.743652,4425.128418,4474.230957,4425.0,4369.230957,4414.743652,4242.563965,4411.666504
1698668249.572949,0.0,4314.230957,4390.512695,4288.589844,4353.077148,4400.256348,4407.179688,4422.179688,4475.0,4427.179688,4367.563965,4408.974121,4230.897461,4412.820313
1698668249.580758,0.0,4318.974121,4383.974121,4290.641113,4354.230957,4400.384766,4404.487305,4423.589844,4473.717773,4426.666504,4370.384766,4408.846191,4236.922852,4411.538574
1698668249.588566,0.0,4319.871582,4384.358887,4292.820313,4356.153809,4401.025879,4405.769043,4425.897461,4469.743652,4427.179688,4375.384766,4414.743652,4250.769043,4413.205078
1698668249.596374,0.0,4318.589844,4389.230957,4290.128418,4352.179688,4399.743652,4410.256348,4425.384766,4472.820313,4426.153809,4371.666504,4411.153809,4239.871582,4412.436035
1698668249.604182,0.0,4320.641113,4386.025879,4296.282227,4353.717773,4398.333496,4406.410156,4422.05127,4473.717773,4427.436035,4371.666504,4411.410156,4244.615234,4410.641113
1698668249.61199,0.0,4315.0,4385.256348,4290.128418,4353.077148,4401.025879,4405.897461,4423.974121,4470.384766,4427.563965,4372.820313,4409.102539,4238.205078,4411.538574
1698668249.619799,0.0,4318.333496,4386.025879,4291.410156,4352.179688,4401.538574,4408.717773,4423.846191,4474.358887,4424.102539,4370.256348,4412.179688,4235.512695,4413.205078
1698668249.627607,0.0,4317.563965,4386.666504,4296.025879,4353.077148,4397.692383,4409.615234,4421.538574,4476.025879,4428.205078,4375.641113,4417.692383,4246.666504,4414.230957
1698668249.635415,0.0,4313.461426,4386.666504,4286.666504,4349.743652,4396.794922,4409.743652,4424.743652,4473.974121,4429.743652,4375.897461,4410.769043,4238.846191,4412.436035
1698668249.643223,0.0,4320.897461,4386.282227,4293.461426,4353.846191,4400.0,4405.256348,4422.05127,4475.0,4427.820313,4372.05127,4411.922852,4243.846191,4412.820313
1698668249.651031,0.0,4318.461426,4391.282227,4295.769043,4357.05127,4401.794922,4407.307617,4421.794922,4473.589844,4428.205078,4374.230957,4413.846191,4240.128418,4413.589844
1698668249.65884,0.0,4316.410156,4387.94873,4291.922852,4353.974121,4400.641113,4409.358887,4426.025879,4471.538574,4426.025879,4374.615234,4412.307617,4233.461426,4412.692383
1698668249.666648,0.0,4318.333496,4384.487305,4293.589844,4353.717773,4400.512695,4405.769043,4422.94873,4470.384766,4428.974121,4376.410156,4413.974121,4245.641113,4413.974121
1698668249.674456,0.0,4316.538574,4387.820313,4288.205078,4353.846191,4400.0,4408.717773,4423.589844,4472.820313,4430.128418,4375.128418,4409.487305,4238.077148,4410.256348
1698668249.682264,0.0,4319.871582,4383.717773,4293.717773,4356.153809,4397.179688,4408.461426,4425.384766,4471.666504,4426.282227,4373.846191,4409.615234,4238.974121,4409.487305
1698668249.690073,0.0,4317.820313,4385.641113,4292.820313,4355.128418,4397.94873,4406.666504,4425.0,4465.897461,4427.563965,4374.871582,4410.256348,4242.563965,4416.025879
1698668249.697881,0.0,4316.666504,4384.358887,4288.846191,4353.333496,4398.974121,4409.230957,4423.461426,4467.436035,4427.179688,4373.846191,4410.512695,4238.589844,4414.358887
1698668249.705689,0.0,4316.922852,4384.102539,4295.256348,4357.820313,4397.692383,4410.897461,4418.461426,4472.307617,4427.94873,4376.922852,4412.820313,4247.05127,4414.358887
1698668249.713497,0.0,4313.589844,4389.102539,4289.102539,4356.153809,4398.846191,4411.922852,4421.410156,4473.333496,4429.102539,4373.974121,4409.358887,4235.256348,4415.0
1698668249.721305,0.0,4319.358887,4380.897461,4286.410156,4353.846191,4399.102539,4407.692383,4424.102539,4470.897461,4427.820313,4371.666504,4413.333496,4231.922852,4410.641113
1698668249.729114,0.0,4320.384766,4384.743652,4288.717773,4355.897461,4399.871582,4406.922852,4422.307617,4468.846191,4428.333496,4377.692383,4415.128418,4238.333496,4414.871582
1698668249.736922,0.0,4317.563965,4393.717773,4289.102539,4353.717773,4401.410156,4408.077148,4423.077148,4471.922852,4425.128418,4376.282227,4409.871582,4233.589844,4415.384766
1698668249.74473,0.0,4318.461426,4387.436035,4294.743652,4353.717773,4398.974121,4404.743652,4423.846191,4473.333496,4428.333496,4374.615234,4411.025879,4240.641113,4410.0
1698668249.752538,0.0,4315.897461,4383.461426,4292.94873,4352.820313,4398.717773,4407.94873,4426.666504,4468.974121,4429.230957,4373.205078,4407.692383,4232.94873,4411.153809
1698668249.760347,0.0,4318.717773,4381.794922,4296.666504,4352.94873,4401.153809,4408.461426,4423.205078,4468.589844,4424.487305,4372.820313,4410.512695,4237.436035,4413.974121
1698668249.768155,0.0,4317.179688,4389.487305,4295.0,4353.974121,4399.743652,4406.922852,4420.641113,4470.769043,4429.102539,4376.922852,4414.230957,4248.077148,4416.794922
1698668249.775963,0.0,4318.846191,4391.538574,4291.153809,4352.820313,4398.846191,4409.102539,4426.538574,4471.538574,4428.333496,4371.538574,4409.743652,4221.025879,4411.922852
1698668249.783771,0.0,4321.282227,4384.358887,4297.307617,4357.307617,4401.025879,4407.820313,4423.717773,4468.461426,4425.256348,4369.743652,4413.717773,4250.641113,4412.94873
1698668249.791579,0.0,4311.794922,4398.589844,4284.230957,4354.615234,4401.410156,4414.487305,4423.846191,4464.358887,4428.205078,4373.589844,4408.974121,4238.717773,4423.589844
1698668249.799388,0.0,4317.436035,4403.205078,4280.897461,4347.563965,4400.384766,4420.128418,4429.743652,4468.205078,4422.05127,4368.846191,4400.512695,4131.025879,4414.230957
1698668249.807196,0.0,4326.538574,4382.179688,4300.384766,4348.717773,4397.436035,4415.128418,4425.512695,4466.153809,4403.333496,4355.384766,4416.538574,4107.563965,4408.205078
1698668249.815004,0.0,4325.0,4377.820313,4305.0,4351.282227,4396.410156,4410.512695,4420.384766,4464.102539,4396.025879,4351.282227,4431.794922,4153.077148,4417.820313
1698668249.822812,0.0,4326.666504,4386.410156,4297.94873,4350.641113,4399.487305,4406.666504,4421.666504,4472.179688,4406.025879,4359.230957,4425.384766,4173.333496,4419.871582
1698668249.83062,0.0,4326.282227,4385.769043,4291.153809,4346.025879,4400.641113,4407.563965,4425.0,4471.153809,4404.487305,4357.05127,4419.487305,4167.692383,4419.487305
1698668249.838429,0.0,4325.256348,4382.820313,4295.0,4348.974121,4398.717773,4406.794922,4423.717773,4470.256348,4398.461426,4354.102539,4425.128418,4172.179688,4420.769043
1698668249.846237,0.0,4319.871582,4384.871582,4294.743652,4354.871582,4399.230957,4404.358887,4421.922852,4474.230957,4404.358887,4358.589844,4428.333496,4187.179688,4423.205078
1698668249.854045,0.0,4316.282227,4386.666504,4288.974121,4353.333496,4402.436035,4408.205078,4424.871582,4469.615234,4406.794922,4355.897461,4424.871582,4172.179688,4421.922852
1698668249.861853,0.0,4321.410156,4383.333496,4295.769043,4353.589844,4399.487305,4407.94873,4423.974121,4463.461426,4405.0,4356.538574,4426.410156,4175.641113,4418.974121
1698668249.869662,0.0,4323.333496,4383.333496,4293.461426,4354.230957,4396.025879,4405.256348,4421.538574,4467.307617,4407.692383,4360.512695,4425.0,4178.205078,4422.179688
1698668249.87747,0.0,4323.589844,4385.897461,4290.512695,4354.487305,4398.846191,4406.922852,4421.794922,4470.769043,4407.820313,4358.589844,4422.820313,4172.820313,4422.179688
1698668249.885278,0.0,4320.769043,4384.871582,4297.436035,4355.897461,4400.769043,4406.282227,4420.897461,4466.282227,4409.487305,4359.487305,4425.769043,4184.871582,4419.871582
1698668249.893086,0.0,4315.769043,4383.974121,4290.512695,4353.461426,4399.487305,4406.922852,4422.436035,4464.487305,4409.743652,4358.333496,4420.0,4175.897461,4417.692383
1698668249.900895,0.0,4322.179688,4380.512695,4289.358887,4354.102539,4398.974121,4410.256348,4423.717773,4465.384766,4405.128418,4355.128418,4423.717773,4175.0,4417.563965
1698668249.908703,0.0,4323.846191,4385.256348,4290.384766,4356.025879,4400.641113,4411.025879,4423.205078,4464.615234,4407.820313,4358.717773,4431.794922,4181.410156,4421.666504
1698668249.916511,0.0,4322.307617,4385.769043,4287.179688,4353.589844,4400.256348,4407.436035,4422.179688,4464.743652,4406.666504,4356.538574,4426.153809,4171.794922,4419.230957
1698668249.924319,0.0,4323.846191,4379.743652,4293.974121,4356.282227,4399.743652,4403.461426,4419.871582,4462.692383,4405.128418,4355.384766,4424.615234,4182.179688,4417.179688
1698668249.932127,0.0,4320.0,4386.410156,4293.589844,4357.179688,4400.897461,4405.0,4426.025879,4463.205078,4408.333496,4356.538574,4422.179688,4178.333496,4420.897461
1698668249.939936,0.0,4323.333496,4385.897461,4293.974121,4354.871582,4400.0,4405.128418,4427.692383,4466.538574,4407.563965,4355.512695,4421.282227,4172.563965,4421.153809
1698668249.947744,0.0,4321.538574,4383.333496,4293.333496,4356.025879,4397.820313,4405.256348,4422.05127,4465.384766,4411.025879,4359.615234,4422.692383,4180.256348,4420.384766
1698668249.955552,0.0,4316.282227,4381.666504,4286.794922,4354.615234,4396.666504,4406.153809,4422.94873,4461.153809,4410.641113,4358.589844,4418.717773,4171.538574,4418.589844
1698668249.96336,0.0,4322.307617,4381.922852,4296.025879,4356.794922,4396.410156,4404.358887,4422.436035,4460.897461,4406.282227,4357.179688,4422.436035,4178.077148,4419.487305
1698668249.971168,0.0,4322.563965,4387.692383,4296.282227,4354.102539,4396.922852,4410.512695,4424.230957,4465.384766,4408.717773,4360.0,4423.717773,4176.538574,4419.615234
1698668249.978977,0.0,4324.358887,4381.153809,4292.436035,4348.974121,4398.077148,4411.794922,4424.230957,4466.153809,4409.743652,4358.205078,4421.025879,4167.820313,4416.538574
1698668249.986785,0.0,4324.358887,4381.410156,4297.307617,4355.0,4397.436035,4407.436035,4418.589844,4461.153809,4411.922852,4362.307617,4421.410156,4174.615234,4419.871582
1698668249.994593,0.0,4318.333496,4385.128418,4291.666504,4354.230957,4396.538574,4409.230957,4423.333496,4464.102539,4409.871582,4361.410156,4416.410156,4168.077148,4418.846191
1698668250.002401,0.0,4321.153809,4382.563965,4295.0,4355.769043,4397.563965,4407.820313,4423.461426,4463.846191,4405.769043,4357.179688,4419.743652,4171.922852,4420.641113
1698668250.010209,0.0,4319.230957,4382.179688,4293.974121,4360.128418,4397.692383,4407.563965,4420.512695,4456.922852,4412.179688,4361.025879,4420.512695,4174.615234,4422.94873
1698668250.018018,0.0,4321.410156,4378.461426,4284.358887,4352.307617,4396.666504,4407.436035,4427.179688,4462.563965,4415.128418,4361.538574,4414.487305,4169.358887,4414.871582
1698668250.025826,0.0,4325.256348,4387.692383,4297.692383,4355.641113,4399.102539,4403.205078,4424.743652,4461.794922,4410.384766,4361.282227,4420.769043,4173.846191,4423.461426
1698668250.033634,0.0,4317.436035,4389.743652,4297.820313,4358.846191,4401.922852,4404.102539,4424.102539,4458.974121,4408.205078,4361.282227,4421.025879,4168.717773,4425.128418
1698668250.041443,0.0,4319.230957,4381.538574,4288.205078,4353.077148,4399.358887,4406.153809,4426.410156,4463.717773,4411.666504,4362.436035,4417.307617,4173.589844,4415.769043
1698668250.049251,0.0,4320.384766,4390.256348,4293.205078,4355.641113,4398.333496,4406.794922,4420.769043,4456.794922,4412.179688,4364.358887,4421.282227,4173.333496,4421.538574
1698668250.057059,0.0,4321.025879,4385.769043,4291.922852,4355.128418,4400.769043,4406.538574,4422.692383,4456.282227,4410.256348,4361.282227,4421.282227,4166.025879,4420.256348
1698668250.064867,0.0,4324.487305,4377.94873,4293.205078,4354.102539,4400.769043,4404.615234,4424.102539,4459.358887,4413.589844,4361.794922,4420.256348,4176.922852,4422.436035
1698668250.072675,0.0,4320.512695,4384.487305,4291.282227,4354.615234,4397.179688,4405.512695,4421.794922,4457.94873,4412.05127,4364.230957,4418.589844,4172.436035,4425.384766
1698668250.080484,0.0,4323.333496,4380.384766,4291.282227,4353.974121,4396.282227,4405.256348,4422.820313,4459.102539,4409.358887,4364.615234,4420.384766,4170.384766,4418.846191
1698668250.088292,0.0,4322.563965,4382.307617,4294.743652,4355.384766,4399.230957,4406.410156,4423.589844,4456.666504,4414.230957,4365.128418,4422.692383,4173.077148,4423.333496
1698668250.0961,0.0,4318.846191,4385.384766,4293.333496,4354.102539,4399.358887,4408.846191,4425.128418,4458.077148,4414.487305,4364.871582,4419.102539,4163.974121,4425.256348
1698668250.103908,0.0,4320.512695,4378.717773,4299.102539,4355.897461,4397.307617,4405.897461,4423.589844,4460.384766,4413.077148,4365.512695,4419.871582,4171.922852,4417.179688
1698668250.111716,0.0,4317.692383,4384.871582,4295.769043,4355.641113,4397.692383,4405.897461,4422.05127,4458.846191,4414.102539,4362.94873,4420.256348,4170.384766,4417.05127
1698668250.119525,0.0,4322.820313,4387.307617,4293.846191,4353.717773,4400.0,4404.743652,4421.922852,4459.871582,4412.307617,4361.794922,4421.666504,4169.358887,4422.820313
1698668250.127333,0.0,4325.384766,4382.820313,4294.615234,4355.128418,4399.358887,4403.846191,4423.205078,4461.922852,4414.230957,4366.025879,4422.307617,4174.871582,4421.538574
1698668250.135141,0.0,4319.871582,4383.974121,4293.717773,4355.384766,4398.589844,4408.717773,4424.102539,4461.538574,4412.05127,4363.846191,4418.717773,4160.128418,4421.153809
1698668250.142949,0.0,4321.922852,4382.179688,4300.769043,4356.666504,4398.846191,4407.563965,4418.589844,4459.615234,4409.487305,4364.615234,4422.563965,4169.230957,4427.05127
1698668250.150757,0.0,4320.256348,4383.461426,4295.256348,4354.615234,4399.102539,4405.641113,4419.102539,4460.0,4416.410156,4367.692383,4420.0,4172.179688,4426.025879
1698668250.158566,0.0,4319.487305,4381.666504,4294.743652,4352.179688,4398.974121,4404.615234,4423.077148,4462.436035,4416.025879,4361.538574,4415.769043,4160.769043,4421.282227
1698668250.166374,0.0,4323.205078,4381.282227,4302.563965,4357.692383,4398.077148,4402.692383,4417.307617,4463.077148,4413.974121,4362.05127,4421.025879,4171.794922,4427.94873
1698668250.174182,0.0,4319.871582,4378.589844,4291.794922,4355.0,4397.436035,4406.794922,4420.641113,4464.230957,4414.743652,4365.0,4416.410156,4168.077148,4425.128418
1698668250.18199,0.0,4323.205078,4378.974121,4294.230957,4352.436035,4397.820313,4406.922852,4424.358887,4460.512695,4409.487305,4360.641113,4412.05127,4152.820313,4417.179688
1698668250.189798,0.0,4326.282227,4397.94873,4313.205078,4363.974121,4398.333496,4402.307617,4413.846191,4452.436035,4413.461426,4363.333496,4424.871582,4171.794922,4435.128418
1698668250.197607,0.0,4317.692383,4373.974121,4290.512695,4352.436035,4397.436035,4405.769043,4426.666504,4475.256348,4421.666504,4368.974121,4422.563965,4178.974121,4423.205078
1698668250.205415,0.0,4320.384766,4372.179688,4285.0,4348.077148,4399.487305,4408.974121,4427.692383,4471.410156,4410.641113,4362.307617,4414.871582,4148.974121,4421.922852
1698668250.213223,0.0,4325.256348,4400.769043,4315.769043,4368.974121,4401.025879,4401.410156,4408.333496,4451.794922,4417.563965,4369.358887,4430.769043,4186.410156,4444.615234
1698668250.221032,0.0,4318.333496,4371.153809,4297.05127,4352.436035,4397.692383,4401.153809,4421.666504,4486.282227,4436.922852,4380.769043,4429.230957,4175.897461,4415.769043
1698668250.22884,0.0,4318.205078,4377.94873,4293.846191,4349.743652,4399.615234,4406.666504,4418.974121,4477.692383,4425.512695,4373.717773,4423.205078,4186.922852,4422.436035
1698668250.236648,0.0,4321.794922,4383.333496,4300.897461,4361.794922,4401.922852,4406.153809,4415.256348,4470.128418,4427.179688,4375.512695,4423.461426,4289.487305,4426.794922
1698668250.244456,0.0,4322.307617,4367.94873,4286.282227,4351.794922,4400.897461,4404.743652,4425.641113,4489.743652,4435.641113,4378.205078,4416.666504,4231.025879,4408.846191
1698668250.252264,0.0,4320.641113,4389.743652,4298.846191,4354.871582,4400.0,4403.974121,4415.641113,4470.256348,4430.0,4377.436035,4426.025879,4141.666504,4426.153809
1698668250.260073,0.0,4320.0,4376.538574,4292.179688,4349.871582,4397.563965,4406.410156,4424.743652,4481.922852,4431.282227,4375.769043,4420.0,4134.487305,4408.717773
1698668250.267881,0.0,4325.384766,4381.282227,4293.461426,4357.563965,4399.743652,4406.538574,4423.846191,4482.436035,4428.846191,4372.05127,4419.102539,4191.410156,4417.05127
1698668250.275689,0.0,4320.641113,4381.025879,4296.666504,4361.538574,4400.384766,4404.615234,4420.384766,4477.05127,4429.743652,4378.333496,4426.410156,4291.410156,4423.846191
1698668250.283497,0.0,4316.666504,4368.717773,4288.846191,4349.358887,4398.077148,4407.436035,4426.282227,4485.128418,4426.538574,4372.820313,4412.94873,4237.05127,4407.563965
1698668250.291305,0.0,4321.794922,4392.94873,4305.0,4362.179688,4399.230957,4407.820313,4414.615234,4468.333496,4424.487305,4370.384766,4416.922852,4148.205078,4424.615234
1698668250.299114,0.0,4322.692383,4374.102539,4288.846191,4355.0,4398.846191,4407.179688,4425.384766,4479.743652,4431.794922,4375.641113,4415.897461,4147.436035,4408.205078
1698668250.306922,0.0,4323.846191,4377.307617,4289.102539,4354.358887,4399.230957,4406.153809,4424.358887,4473.333496,4425.128418,4372.05127,4415.0,4197.307617,4412.692383
1698668250.31473,0.0,4319.230957,4383.846191,4297.179688,4359.487305,4396.666504,4406.922852,4418.717773,4468.461426,4427.563965,4378.589844,4418.974121,4276.538574,4420.769043
1698668250.322538,0.0,4318.974121,4368.717773,4283.077148,4347.820313,4396.538574,4409.487305,4425.641113,4484.230957,4429.230957,4379.358887,4410.0,4232.563965,4404.102539
1698668250.330346,0.0,4321.666504,4396.666504,4304.358887,4362.05127,4401.025879,4407.692383,4411.666504,4463.205078,4421.538574,4373.077148,4421.025879,4183.974121,4422.94873
1698668250.338155,0.0,4319.102539,4374.358887,4293.461426,4354.230957,4400.0,4406.282227,4425.0,4473.974121,4432.820313,4376.794922,4418.077148,4211.153809,4410.769043
1698668250.345963,0.0,4326.794922,4370.897461,4289.487305,4351.153809,4399.102539,4403.717773,4423.846191,4471.538574,4431.410156,4372.94873,4409.487305,4205.769043,4413.589844
1698668250.353771,0.0,4324.102539,4389.230957,4305.769043,4364.230957,4397.05127,4401.025879,4411.794922,4455.897461,4427.179688,4375.128418,4419.487305,4237.563965,4421.922852
1698668250.361579,0.0,4319.358887,4362.563965,4281.538574,4345.769043,4396.410156,4406.922852,4432.820313,4481.922852,4436.410156,4381.794922,4410.769043,4228.589844,4396.153809
1698668250.369388,0.0,4327.436035,4385.641113,4293.205078,4354.358887,4401.025879,4410.384766,4421.538574,4466.410156,4425.128418,4373.589844,4411.025879,4196.794922,4422.05127
1698668250.377196,0.0,4328.077148,4388.846191,4314.615234,4371.538574,4398.717773,4404.102539,4406.153809,4452.307617,4422.563965,4375.256348,4426.025879,4224.358887,4432.179688
1698668250.385004,0.0,4320.641113,4341.538574,4276.282227,4342.05127,4396.410156,4407.692383,4438.077148,4493.974121,4440.128418,4384.743652,4407.436035,4231.153809,4391.025879
1698668250.392812,0.0,4328.846191,4392.179688,4288.333496,4345.897461,4402.436035,4414.615234,4429.230957,4468.077148,4421.025879,4369.102539,4401.153809,4198.333496,4426.538574
1698668250.400621,0.0,4335.384766,4421.666504,4340.769043,4386.282227,4397.307617,4399.871582,4391.794922,4423.461426,4408.589844,4366.666504,4438.461426,4278.205078,4453.333496
1698668250.408429,0.0,4311.538574,4326.794922,4256.794922,4338.077148,4389.743652,4405.897461,4442.692383,4502.692383,4448.717773,4385.384766,4410.256348,4263.974121,4371.538574
1698668250.416237,0.0,4323.589844,4383.717773,4268.589844,4341.666504,4400.384766,4415.897461,4431.794922,4482.692383,4430.769043,4368.846191,4399.743652,4121.922852,4420.512695
1698668250.424045,0.0,4327.94873,4410.256348,4341.538574,4388.974121,4397.436035,4399.358887,4394.358887,4445.897461,4423.461426,4379.102539,4438.974121,4252.436035,4448.333496
1698668250.431853,0.0,4300.384766,4308.333496,4226.025879,4312.307617,4391.410156,4414.487305,4466.538574,4535.0,4444.230957,4378.974121,4382.820313,4193.974121,4345.641113
1698668250.439662,0.0,4331.153809,4404.487305,4270.0,4328.589844,4405.769043,4420.769043,4436.922852,4464.102539,4391.538574,4337.436035,4395.897461,4073.589844,4430.384766
1698668250.44747,0.0,4341.282227,4430.897461,4350.128418,4379.743652,4405.256348,4405.128418,4397.179688,4423.333496,4394.871582,4359.743652,4450.897461,4188.205078,4459.230957
1698668250.455278,0.0,4322.307617,4356.666504,4280.0,4339.487305,4400.256348,4414.487305,4437.179688,4488.205078,4416.538574,4368.461426,4414.102539,4099.102539,4381.410156
1698668250.463086,0.0,4330.384766,4390.0,4300.0,4351.153809,4403.205078,4413.846191,4422.179688,4462.563965,4395.256348,4353.974121,4421.922852,4104.487305,4419.615234
1698668250.470894,0.0,4323.974121,4391.794922,4308.974121,4359.615234,4399.743652,4407.692383,4420.128418,4457.820313,4405.384766,4366.410156,4433.333496,4207.05127,4420.897461
1698668250.478703,0.0,4323.589844,4381.282227,4294.230957,4351.282227,4398.717773,4409.230957,4427.05127,4463.589844,4405.0,4362.307617,4421.025879,4198.589844,4406.282227
1698668250.486511,0.0,4324.743652,4382.179688,4303.333496,4356.538574,4398.974121,4407.820313,4417.820313,4460.128418,4403.846191,4363.717773,4428.077148,4185.897461,4419.871582
1698668250.494319,0.0,4320.384766,4383.205078,4294.230957,4352.563965,4399.871582,4408.461426,4421.025879,4463.717773,4407.94873,4363.974121,4424.230957,4129.871582,4417.05127
1698668250.502127,0.0,4327.436035,4387.94873,4300.0,4355.641113,4399.743652,4406.794922,4420.769043,4457.179688,4406.794922,4361.282227,4427.307617,4143.205078,4416.794922
1698668250.509936,0.0,4322.436035,4382.692383,4295.256348,4356.794922,4399.358887,4406.922852,4421.666504,4464.871582,4412.692383,4364.230957,4429.358887,4196.410156,4418.461426
1698668250.517744,0.0,4319.615234,4382.05127,4290.769043,4357.179688,4401.282227,4406.410156,4421.153809,4465.512695,4413.589844,4363.974121,4426.282227,4213.077148,4422.692383
1698668250.525552,0.0,4325.0,4378.974121,4294.743652,4357.436035,4399.871582,4403.717773,4421.025879,4461.666504,4418.077148,4368.077148,4427.436035,4187.94873,4419.615234
1698668250.53336,0.0,4321.666504,4385.0,4292.179688,4356.410156,4397.05127,4405.641113,4423.077148,4464.358887,4421.538574,4368.461426,4424.230957,4139.743652,4419.743652
1698668250.541168,0.0,4320.0,4387.179688,4300.384766,4360.0,4397.563965,4407.94873,4418.846191,4463.589844,4418.717773,4367.436035,4426.538574,4138.333496,4421.025879
1698668250.548977,0.0,4320.0,4380.897461,4300.769043,4358.461426,4399.743652,4407.692383,4418.717773,4463.717773,4420.256348,4367.05127,4426.666504,4185.641113,4420.0
1698668250.556785,0.0,4322.307617,4379.487305,4297.307617,4355.769043,4400.128418,4405.256348,4420.897461,4463.717773,4419.230957,4366.153809,4423.974121,4219.358887,4425.512695
1698668250.564593,0.0,4324.102539,4379.743652,4303.717773,4358.205078,4400.0,4405.512695,4418.461426,4463.974121,4421.025879,4371.922852,4430.128418,4197.436035,4427.307617
1698668250.572401,0.0,4322.179688,4383.077148,4298.974121,4357.436035,4400.512695,4409.871582,4418.846191,4463.333496,4420.0,4368.461426,4428.589844,4130.256348,4424.743652
1698668250.58021,0.0,4322.563965,4382.94873,4300.256348,4358.589844,4399.230957,4406.794922,4418.589844,4461.538574,4414.358887,4363.205078,4426.282227,4114.358887,4427.436035
1698668250.588018,0.0,4320.769043,4384.102539,4303.333496,4360.0,4397.179688,4405.512695,4420.512695,4461.025879,4419.615234,4366.922852,4426.538574,4183.205078,4430.256348
1698668250.595826,0.0,4323.333496,4382.820313,4295.769043,4354.871582,4398.077148,4410.256348,4423.717773,4461.025879,4423.333496,4365.897461,4425.128418,4234.615234,4429.358887
1698668250.603634,0.0,4326.538574,4379.615234,4298.846191,4357.05127,4398.846191,4406.794922,4418.717773,4466.153809,4422.05127,4366.153809,4429.871582,4207.94873,4431.025879
1698668250.611442,0.0,4318.077148,4382.179688,4297.563965,4358.846191,4399.102539,4406.025879,4417.692383,4470.0,4420.641113,4367.307617,4427.94873,4133.974121,4430.384766
1698668250.619251,0.0,4320.641113,4380.128418,4294.102539,4354.615234,4400.641113,4407.179688,4419.487305,4470.0,4419.487305,4366.410156,4426.538574,4104.743652,4431.282227
1698668250.627059,0.0,4327.692383,4381.025879,4299.487305,4357.563965,4399.743652,4405.769043,4415.769043,4465.641113,4420.128418,4369.487305,4428.846191,4170.897461,4437.563965
1698668250.634867,0.0,4318.589844,4376.922852,4294.487305,4354.615234,4396.282227,4408.589844,4421.666504,4466.153809,4419.230957,4370.128418,4422.94873,4235.641113,4427.179688
1698668250.642675,0.0,4318.205078,4378.717773,4301.410156,4353.974121,4398.077148,4407.820313,4424.615234,4468.205078,4422.94873,4370.769043,4426.410156,4212.179688,4427.94873
1698668250.650483,0.0,4324.230957,4389.743652,4309.230957,4358.974121,4401.153809,4407.179688,4418.461426,4464.102539,4424.871582,4369.487305,4431.153809,4145.641113,4436.410156
1698668250.658292,0.0,4325.384766,4379.487305,4295.0,4353.589844,4398.333496,4408.589844,4422.563965,4474.230957,4422.179688,4367.563965,4425.897461,4117.307617,4420.256348
1698668250.6661,0.0,4323.461426,4380.0,4295.769043,4353.205078,4396.666504,4408.205078,4422.05127,4472.820313,4422.820313,4372.05127,4426.538574,4164.358887,4423.461426
1698668250.673908,0.0,4320.512695,4386.922852,4301.794922,4355.641113,4398.974121,4408.461426,4417.05127,4463.333496,4424.230957,4372.820313,4425.641113,4219.230957,4429.615234
1698668250.681716,0.0,4323.077148,4375.128418,4298.717773,4356.410156,4400.897461,4405.256348,4419.102539,4470.512695,4423.589844,4370.256348,4424.743652,4212.307617,4419.230957
1698668250.689525,0.0,4321.153809,4381.153809,4296.153809,4360.769043,4402.179688,4403.717773,4420.769043,4470.256348,4425.0,4369.615234,4426.410156,4161.538574,4426.538574
1698668250.697333,0.0,4322.436035,4385.769043,4294.230957,4358.333496,4402.307617,4406.666504,4422.05127,4472.820313,4430.769043,4372.05127,4424.743652,4127.436035,4427.179688
1698668250.705141,0.0,4324.358887,4378.846191,4300.384766,4354.615234,4400.256348,4405.384766,4418.589844,4473.461426,4430.512695,4373.589844,4428.846191,4159.743652,4422.05127
1698668250.712949,0.0,4317.436035,4383.717773,4298.461426,4353.077148,4398.205078,4403.205078,4419.743652,4470.128418,4425.256348,4371.666504,4426.666504,4201.153809,4421.922852
1698668250.720757,0.0,4318.717773,4387.692383,4299.615234,4354.102539,4399.487305,4402.307617,4420.384766,4473.205078,4426.410156,4373.461426,4426.153809,4211.794922,4422.436035
1698668250.728566,0.0,4321.282227,4388.717773,4309.743652,4361.794922,4400.897461,4403.974121,4412.692383,4466.538574,4429.102539,4377.820313,4435.769043,4165.384766,4429.102539
1698668250.736374,0.0,4316.282227,4368.333496,4285.512695,4347.307617,4397.94873,4410.128418,4428.461426,4481.153809,4430.0,4374.487305,4420.512695,4133.717773,4405.0
1698668250.744182,0.0,4322.436035,4391.794922,4298.077148,4355.128418,4399.871582,4409.102539,4419.487305,4470.769043,4422.436035,4370.512695,4420.897461,4155.384766,4421.153809
1698668250.75199,0.0,4323.589844,4411.153809,4341.922852,4389.487305,4401.025879,4398.205078,4391.922852,4446.794922,4431.410156,4389.230957,4450.769043,4220.897461,4455.769043
1698668250.759799,0.0,4311.025879,4336.794922,4275.641113,4347.307617,4395.0,4405.256348,4433.205078,4493.077148,4445.128418,4383.846191,4410.897461,4154.102539,4387.94873
1698668250.767607,0.0,4320.769043,4382.05127,4272.692383,4344.358887,4399.615234,4412.436035,4427.563965,4469.487305,4426.794922,4362.05127,4397.05127,4134.615234,4409.871582
1698668250.775415,0.0,4322.307617,4412.820313,4324.615234,4377.820313,4398.077148,4402.94873,4400.769043,4453.077148,4442.563965,4390.128418,4439.102539,4316.794922,4451.538574
1698668250.783223,0.0,4312.05127,4347.820313,4279.230957,4340.512695,4393.461426,4408.077148,4431.538574,4503.974121,4453.461426,4391.282227,4414.102539,4250.0,4396.666504
1698668250.791031,0.0,4319.871582,4395.897461,4291.282227,4350.256348,4402.179688,4413.333496,4417.436035,4468.589844,4427.179688,4371.410156,4410.128418,4139.102539,4424.615234
1698668250.79884,0.0,4320.512695,4393.205078,4305.128418,4362.563965,4401.025879,4407.563965,4416.153809,4468.205078,4439.615234,4389.102539,4428.589844,4234.615234,4428.717773
1698668250.806648,0.0,4319.102539,4366.922852,4285.769043,4345.512695,4396.794922,4407.436035,4431.153809,4487.436035,4443.333496,4387.692383,4415.256348,4211.666504,4406.922852
1698668250.814456,0.0,4319.615234,4392.436035,4299.615234,4355.641113,4399.615234,4407.436035,4417.692383,4467.05127,4431.410156,4380.128418,4419.615234,4187.692383,4428.077148
1698668250.822264,0.0,4317.307617,4379.102539,4295.512695,4355.769043,4400.641113,4405.897461,4418.974121,4477.692383,4436.410156,4383.974121,4417.820313,4210.128418,4421.282227
1698668250.830073,0.0,4314.743652,4382.436035,4294.871582,4355.897461,4400.512695,4407.436035,4418.846191,4472.820313,4433.077148,4380.256348,4410.769043,4208.461426,4421.794922
1698668250.837881,0.0,4316.538574,4380.897461,4290.641113,4350.384766,4399.871582,4409.487305,4425.256348,4474.230957,4431.922852,4379.487305,4413.846191,4194.230957,4416.666504
1698668250.845689,0.0,4322.179688,4385.897461,4296.282227,4354.615234,4400.0,4406.282227,4421.666504,4471.410156,4430.897461,4378.589844,4419.615234,4201.025879,4423.589844
1698668250.853497,0.0,4316.922852,4389.102539,4300.128418,4360.769043,4400.384766,4407.692383,4416.794922,4467.436035,4430.641113,4379.102539,4420.128418,4215.897461,4424.358887
1698668250.861305,0.0,4316.666504,4377.307617,4288.333496,4352.692383,4399.743652,4412.307617,4425.897461,4482.436035,4433.717773,4380.512695,4415.769043,4196.153809,4407.563965
1698668250.869114,0.0,4317.94873,4392.436035,4296.922852,4358.717773,4397.563965,4410.128418,4417.820313,4467.563965,4429.615234,4376.922852,4421.282227,4202.05127,4426.410156
1698668250.876922,0.0,4313.333496,4385.128418,4296.153809,4353.974121,4396.666504,4408.205078,4419.102539,4471.282227,4434.615234,4379.358887,4422.307617,4231.922852,4423.077148
1698668250.88473,0.0,4316.922852,4378.205078,4293.717773,4350.769043,4397.436035,4407.692383,4426.025879,4480.384766,4435.641113,4381.538574,4419.358887,4210.897461,4414.230957
1698668250.892538,0.0,4321.794922,4394.230957,4302.563965,4361.410156,4396.025879,4406.410156,4418.589844,4462.563965,4426.282227,4377.179688,4423.333496,4204.615234,4429.102539
1698668250.900346,0.0,4322.179688,4383.461426,4294.487305,4356.410156,4394.615234,4407.307617,4420.512695,4473.461426,4431.025879,4381.410156,4422.179688,4214.615234,4419.102539
