type,marker_value,duration,timestamp
phase_Sitting_on_the_chair_in_nature,recording,8.003424,1698668230.575553
Timestamp,EEG.AF3,EEG.F7,EEG.F3,EEG.FC5,EEG.T7,EEG.P7,EEG.O1,EEG.O2,EEG.P8,EEG.T8,EEG.FC6,EEG.F4,EEG.F8,EEG.AF4
1698668230.575553,0.0,4322.307617,4376.538574,4296.025879,4355.0,4395.128418,4404.102539,4419.743652,4455.512695,4412.563965,4362.436035,4414.358887,4151.025879,4421.282227
1698668230.583361,0.0,4321.666504,4381.282227,4290.512695,4355.641113,4396.153809,4405.512695,4420.128418,4455.641113,4412.820313,4362.179688,4412.820313,4225.512695,4422.563965
1698668230.591169,0.0,4322.307617,4383.974121,4293.333496,4354.487305,4398.461426,4405.256348,4421.538574,4459.743652,4411.922852,4358.974121,4415.256348,4244.615234,4420.256348
1698668230.598977,0.0,4323.717773,4381.410156,4296.410156,4355.256348,4398.205078,4404.615234,4419.743652,4462.436035,4414.615234,4363.461426,4418.589844,4200.128418,4422.307617
1698668230.606785,0.0,4321.282227,4382.563965,4289.615234,4354.230957,4396.282227,4405.769043,4420.384766,4458.974121,4416.153809,4363.077148,4414.358887,4124.102539,4426.410156
1698668230.614594,0.0,4324.102539,4379.102539,4298.205078,4355.512695,4395.769043,4403.077148,4420.769043,4458.333496,4416.794922,4361.538574,4415.512695,4140.128418,4422.563965
1698668230.622402,0.0,4325.512695,4379.230957,4300.897461,4355.512695,4397.436035,4404.230957,4421.282227,4461.282227,4419.102539,4364.487305,4415.512695,4219.615234,4419.358887
1698668230.63021,0.0,4326.282227,4383.461426,4298.333496,4353.333496,4398.077148,4403.589844,4418.461426,4458.077148,4415.128418,4362.820313,4414.358887,4245.641113,4422.820313
1698668230.638018,0.0,4322.563965,4382.05127,4299.358887,4353.333496,4396.153809,4402.436035,4413.974121,4455.512695,4414.102539,4365.512695,4417.94873,4196.666504,4426.025879
1698668230.645827,0.0,4321.922852,4379.615234,4289.615234,4351.666504,4395.256348,4407.820313,4415.769043,4459.871582,4415.0,4366.922852,4416.153809,4138.589844,4425.256348
1698668230.653635,0.0,4332.436035,4373.589844,4289.615234,4354.871582,4396.025879,4407.692383,4415.512695,4467.05127,4414.743652,4362.692383,4415.897461,4153.461426,4422.94873
1698668230.661443,0.0,4327.179688,4375.256348,4291.666504,4357.436035,4397.436035,4405.384766,4418.077148,4468.717773,4416.410156,4363.589844,4414.743652,4202.436035,4420.128418
1698668230.669251,0.0,4323.333496,4382.820313,4295.769043,4355.512695,4400.256348,4403.974121,4423.077148,4460.897461,4415.384766,4365.256348,4413.974121,4220.128418,4422.179688
1698668230.67706,0.0,4326.025879,4381.922852,4305.256348,4356.025879,4398.974121,4403.717773,4421.410156,4457.307617,4416.282227,4365.897461,4415.769043,4201.922852,4426.153809
1698668230.684868,0.0,4322.179688,4378.461426,4293.717773,4355.512695,4395.641113,4405.256348,4420.384766,4462.307617,4417.05127,4363.717773,4414.615234,4170.128418,4424.871582
1698668230.692676,0.0,4326.410156,4372.436035,4285.128418,4356.538574,4396.666504,4400.512695,4419.487305,4462.563965,4413.461426,4363.717773,4419.743652,4165.256348,4424.102539
1698668230.700484,0.0,4322.692383,4376.025879,4292.436035,4356.282227,4398.589844,4399.487305,4417.179688,4462.179688,4415.384766,4368.461426,4418.717773,4189.871582,4424.487305
1698668230.708292,0.0,4320.0,4382.179688,4296.410156,4353.974121,4396.794922,4405.897461,4418.589844,4466.794922,4416.794922,4368.077148,4411.410156,4218.461426,4424.358887
1698668230.716101,0.0,4331.666504,4372.05127,4296.538574,4355.384766,4395.128418,4404.615234,4417.05127,4466.282227,4414.615234,4366.666504,4417.692383,4209.358887,4423.589844
1698668230.723909,0.0,4328.461426,4370.512695,4288.461426,4356.025879,4397.94873,4402.820313,4414.487305,4464.230957,4417.179688,4367.05127,4418.461426,4152.179688,4423.205078
1698668230.731717,0.0,4318.717773,4378.717773,4288.589844,4354.102539,4397.692383,4403.717773,4418.846191,4463.077148,4415.897461,4367.94873,4413.333496,4158.846191,4426.794922
1698668230.739525,0.0,4322.820313,4377.05127,4298.717773,4353.974121,4393.846191,4399.743652,4422.179688,4458.846191,4412.179688,4368.717773,4417.436035,4188.974121,4425.512695
1698668230.747333,0.0,4330.384766,4366.922852,4304.871582,4357.563965,4394.358887,4395.512695,4415.897461,4466.538574,4416.153809,4368.333496,4422.05127,4202.179688,4420.128418
1698668230.755142,0.0,4326.282227,4363.077148,4306.794922,4364.743652,4396.410156,4394.102539,4409.487305,4475.128418,4426.794922,4378.205078,4420.128418,4248.974121,4424.102539
1698668230.76295,0.0,4315.256348,4376.025879,4294.102539,4361.922852,4396.025879,4404.102539,4417.820313,4463.461426,4428.205078,4381.538574,4403.077148,4278.205078,4425.128418
1698668230.770758,0.0,4320.897461,4377.692383,4296.282227,4355.384766,4395.128418,4408.717773,4421.025879,4458.974121,4426.538574,4374.615234,4399.615234,4277.436035,4417.05127
1698668230.778566,0.0,4322.563965,4374.871582,4304.487305,4357.820313,4396.153809,4402.820313,4413.974121,4466.410156,4438.333496,4382.05127,4406.538574,4249.487305,4417.692383
1698668230.786374,0.0,4313.589844,4379.230957,4285.512695,4357.436035,4395.897461,4402.307617,4416.794922,4466.666504,4441.666504,4385.0,4397.692383,4222.05127,4419.615234
1698668230.794183,0.0,4323.846191,4373.077148,4286.410156,4357.94873,4395.512695,4401.538574,4419.102539,4467.05127,4434.615234,4379.871582,4402.692383,4249.102539,4418.333496
1698668230.801991,0.0,4327.820313,4374.230957,4296.538574,4358.717773,4398.205078,4405.641113,4418.333496,4466.922852,4434.358887,4380.0,4408.205078,4253.589844,4419.102539
1698668230.809799,0.0,4325.0,4371.666504,4287.820313,4353.974121,4398.974121,4407.820313,4419.102539,4471.025879,4437.179688,4380.256348,4405.384766,4218.077148,4415.641113
1698668230.817608,0.0,4326.922852,4367.563965,4291.666504,4356.282227,4396.282227,4403.589844,4418.461426,4475.897461,4440.384766,4382.307617,4409.102539,4233.846191,4415.256348
1698668230.825416,0.0,4320.128418,4379.487305,4302.436035,4357.94873,4396.538574,4405.384766,4420.512695,4467.436035,4434.871582,4379.743652,4405.384766,4268.077148,4417.692383
1698668230.833224,0.0,4319.743652,4377.820313,4301.922852,4353.589844,4397.563965,4404.358887,4419.102539,4461.025879,4429.487305,4377.563965,4407.05127,4273.589844,4417.05127
1698668230.841032,0.0,4321.153809,4371.922852,4286.666504,4352.05127,4398.205078,4402.692383,4418.205078,4464.358887,4433.589844,4378.717773,4411.153809,4241.282227,4420.512695
1698668230.84884,0.0,4321.794922,4377.307617,4288.333496,4355.0,4398.717773,4404.487305,4419.615234,4465.641113,4433.589844,4375.769043,4408.974121,4203.077148,4417.820313
1698668230.856649,0.0,4321.282227,4381.153809,4305.0,4357.307617,4398.077148,4403.461426,4416.282227,4462.820313,4429.615234,4373.333496,4410.256348,4226.153809,4415.384766
1698668230.864457,0.0,4314.487305,4383.846191,4296.410156,4353.717773,4397.94873,4404.615234,4417.692383,4460.897461,4424.871582,4371.538574,4407.820313,4264.487305,4420.769043
1698668230.872265,0.0,4317.820313,4377.820313,4292.436035,4352.692383,4398.077148,4402.307617,4419.102539,4462.307617,4424.102539,4372.307617,4408.077148,4282.307617,4419.230957
1698668230.880073,0.0,4318.333496,4375.384766,4298.846191,4354.615234,4398.717773,4401.538574,4417.436035,4462.307617,4428.846191,4374.615234,4413.333496,4250.512695,4417.563965
1698668230.887881,0.0,4319.871582,4379.230957,4297.94873,4353.846191,4399.871582,4406.153809,4419.615234,4464.102539,4423.205078,4372.05127,4411.282227,4188.077148,4419.871582
1698668230.89569,0.0,4325.512695,4372.563965,4299.230957,4355.641113,4398.717773,4403.077148,4417.692383,4465.769043,4419.871582,4372.692383,4409.615234,4216.794922,4420.384766
1698668230.903498,0.0,4318.333496,4375.256348,4293.846191,4354.102539,4395.897461,4402.179688,4417.820313,4462.692383,4425.384766,4373.461426,4407.307617,4283.461426,4422.05127
1698668230.911306,0.0,4313.333496,4383.205078,4303.974121,4352.436035,4395.128418,4405.128418,4420.256348,4460.512695,4421.410156,4369.743652,4408.589844,4286.538574,4422.94873
1698668230.919114,0.0,4314.487305,4382.820313,4310.256348,4354.358887,4397.307617,4406.282227,4416.538574,4463.461426,4420.384766,4370.256348,4416.153809,4240.641113,4422.05127
1698668230.926922,0.0,4323.717773,4381.922852,4295.256348,4353.333496,4397.436035,4405.256348,4416.410156,4464.871582,4423.333496,4369.230957,4415.641113,4203.077148,4423.461426
1698668230.934731,0.0,4331.282227,4378.461426,4300.384766,4354.358887,4393.717773,4400.384766,4420.256348,4462.563965,4424.102539,4371.410156,4412.179688,4225.897461,4425.0
1698668230.942539,0.0,4323.846191,4380.512695,4307.05127,4353.846191,4394.358887,4402.94873,4421.794922,4466.666504,4427.05127,4375.512695,4410.0,4259.871582,4425.0
1698668230.950347,0.0,4324.615234,4379.230957,4299.358887,4351.025879,4399.487305,4405.0,4418.589844,4467.179688,4423.333496,4370.769043,4413.461426,4262.820313,4423.589844
1698668230.958155,0.0,4322.436035,4378.717773,4296.282227,4353.077148,4399.871582,4401.153809,4417.05127,4462.692383,4425.512695,4372.820313,4417.94873,4252.05127,4421.410156
1698668230.965963,0.0,4320.0,4383.717773,4295.256348,4354.871582,4396.153809,4403.974121,4422.05127,4467.692383,4428.846191,4374.102539,4413.974121,4237.692383,4422.563965
1698668230.973772,0.0,4333.717773,4376.794922,4301.794922,4356.282227,4394.743652,4406.153809,4421.282227,4471.538574,4422.05127,4368.974121,4414.615234,4240.0,4423.461426
1698668230.98158,0.0,4327.179688,4381.410156,4302.307617,4354.871582,4399.102539,4407.692383,4419.871582,4466.410156,4421.025879,4371.538574,4414.871582,4243.077148,4423.205078
1698668230.989388,0.0,4313.205078,4388.205078,4296.922852,4350.128418,4400.512695,4407.563965,4422.05127,4462.436035,4422.692383,4373.333496,4414.230957,4245.512695,4423.077148
1698668230.997197,0.0,4320.0,4380.897461,4301.666504,4351.538574,4397.820313,4403.333496,4420.128418,4464.615234,4424.358887,4373.846191,4418.333496,4253.846191,4420.512695
1698668231.005005,0.0,4323.846191,4379.615234,4301.282227,4351.666504,4397.820313,4405.0,4419.615234,4465.512695,4425.769043,4373.461426,4415.769043,4240.384766,4421.794922
1698668231.012813,0.0,4322.05127,4381.153809,4301.025879,4352.436035,4397.692383,4405.0,4418.589844,4462.820313,4423.333496,4373.077148,4415.897461,4245.512695,4427.692383
1698668231.020621,0.0,4316.282227,4381.794922,4301.538574,4355.769043,4396.794922,4402.05127,4418.461426,4466.025879,4424.358887,4373.333496,4417.307617,4255.256348,4425.384766
1698668231.028429,0.0,4319.102539,4377.05127,4298.717773,4355.0,4399.230957,4403.205078,4421.025879,4470.897461,4422.307617,4370.384766,4415.256348,4233.205078,4421.666504
1698668231.036238,0.0,4330.128418,4374.358887,4300.384766,4356.153809,4398.974121,4403.846191,4418.077148,4469.871582,4421.922852,4373.077148,4417.436035,4239.358887,4425.641113
1698668231.044046,0.0,4321.794922,4380.512695,4293.589844,4354.743652,4396.282227,4405.128418,4417.94873,4463.846191,4423.846191,4374.230957,4414.487305,4251.282227,4423.461426
1698668231.051854,0.0,4315.769043,4377.563965,4296.410156,4354.102539,4395.641113,4403.717773,4419.487305,4461.794922,4420.0,4368.846191,4415.256348,4257.05127,4419.743652
1698668231.059662,0.0,4322.179688,4376.410156,4301.922852,4355.641113,4394.487305,4404.487305,4419.230957,4467.179688,4423.846191,4370.128418,4418.077148,4253.077148,4424.487305
1698668231.06747,0.0,4323.589844,4383.846191,4299.230957,4355.128418,4395.0,4406.794922,4421.538574,4466.922852,4426.153809,4370.384766,4414.871582,4226.794922,4425.128418
1698668231.075279,0.0,4320.0,4382.05127,4306.025879,4357.563965,4397.692383,4404.230957,4420.512695,4464.102539,4422.436035,4370.384766,4418.333496,4237.692383,4422.563965
1698668231.083087,0.0,4316.153809,4379.871582,4301.410156,4354.871582,4397.563965,4406.922852,4419.743652,4472.563965,4423.974121,4372.05127,4417.179688,4263.589844,4423.205078
1698668231.090895,0.0,4326.153809,4377.05127,4297.179688,4352.94873,4395.512695,4406.282227,4420.384766,4477.563965,4424.743652,4370.256348,4417.307617,4264.743652,4423.205078
1698668231.098703,0.0,4325.897461,4374.615234,4299.102539,4357.179688,4395.769043,4400.256348,4419.358887,4469.615234,4427.307617,4373.589844,4420.256348,4252.94873,4422.94873
1698668231.106511,0.0,4317.05127,4382.563965,4295.256348,4354.230957,4396.410156,4404.358887,4419.487305,4467.307617,4425.769043,4371.922852,4413.461426,4230.256348,4424.358887
1698668231.11432,0.0,4323.333496,4379.487305,4303.077148,4351.025879,4395.512695,4405.769043,4418.077148,4472.692383,4423.077148,4368.846191,4415.256348,4233.333496,4426.025879
1698668231.122128,0.0,4316.025879,4378.717773,4300.897461,4351.410156,4396.922852,4403.717773,4419.743652,4471.538574,4426.410156,4372.692383,4418.077148,4247.436035,4422.692383
1698668231.129936,0.0,4306.538574,4386.538574,4299.102539,4352.436035,4397.436035,4402.563965,4421.025879,4467.563965,4423.974121,4372.820313,4417.436035,4254.487305,4417.05127
1698668231.137744,0.0,4314.230957,4386.538574,4306.666504,4357.05127,4395.256348,4403.589844,4418.589844,4467.436035,4425.128418,4374.871582,4420.641113,4252.692383,4418.974121
1698668231.145553,0.0,4325.384766,4383.589844,4299.230957,4356.282227,4396.282227,4409.615234,4418.461426,4471.538574,4429.487305,4375.128418,4415.641113,4225.897461,4422.179688
1698668231.153361,0.0,4325.256348,4376.538574,4296.794922,4351.410156,4399.743652,4406.410156,4415.512695,4470.0,4426.282227,4372.05127,4415.897461,4236.025879,4421.666504
1698668231.161169,0.0,4316.153809,4379.230957,4299.487305,4352.307617,4401.794922,4405.769043,4418.461426,4465.769043,4425.0,4372.820313,4418.846191,4260.0,4423.461426
1698668231.168977,0.0,4326.538574,4379.743652,4301.666504,4356.153809,4399.871582,4413.846191,4423.974121,4471.666504,4422.692383,4370.641113,4415.0,4250.641113,4424.230957
1698668231.176786,0.0,4333.717773,4374.487305,4303.205078,4356.666504,4394.743652,4413.333496,4418.589844,4474.871582,4424.615234,4373.333496,4414.230957,4253.077148,4421.666504
1698668231.184594,0.0,4318.846191,4384.102539,4294.743652,4351.025879,4394.871582,4408.461426,4418.846191,4468.846191,4428.846191,4377.179688,4413.589844,4249.487305,4420.512695
1698668231.192402,0.0,4316.025879,4383.077148,4297.307617,4351.410156,4395.897461,4402.307617,4420.256348,4468.974121,4423.974121,4374.743652,4419.358887,4242.94873,4423.077148
1698668231.20021,0.0,4317.563965,4378.077148,4300.256348,4355.641113,4395.641113,4402.94873,4419.102539,4471.922852,4424.743652,4374.358887,4422.820313,4246.538574,4423.974121
1698668231.208018,0.0,4320.512695,4380.0,4298.717773,4353.333496,4398.205078,4408.461426,4423.077148,4470.641113,4426.794922,4372.692383,4415.512695,4244.487305,4421.538574
1698668231.215827,0.0,4328.717773,4379.871582,4306.794922,4353.717773,4398.974121,4402.692383,4420.256348,4473.205078,4426.153809,4373.461426,4416.794922,4249.358887,4421.794922
1698668231.223635,0.0,4321.794922,4386.410156,4301.153809,4353.333496,4396.025879,4403.205078,4417.05127,4475.128418,4425.641113,4374.743652,4418.974121,4237.307617,4424.102539
1698668231.231443,0.0,4319.358887,4383.333496,4295.512695,4351.666504,4395.128418,4409.102539,4418.077148,4470.897461,4423.333496,4371.922852,4419.102539,4236.410156,4420.897461
1698668231.239251,0.0,4320.641113,4379.102539,4298.077148,4352.94873,4396.794922,4408.717773,4419.102539,4467.436035,4427.05127,4374.615234,4419.487305,4258.333496,4421.922852
1698668231.247059,0.0,4318.205078,4386.282227,4297.94873,4351.538574,4396.282227,4408.589844,4421.538574,4469.615234,4425.512695,4375.128418,4414.487305,4251.538574,4425.512695
1698668231.254868,0.0,4322.94873,4383.461426,4303.974121,4353.974121,4395.384766,4407.692383,4419.358887,4473.846191,4422.307617,4374.358887,4417.179688,4246.282227,4421.538574
1698668231.262676,0.0,4321.666504,4380.256348,4299.743652,4353.974121,4396.922852,4407.94873,4417.94873,4476.666504,4427.436035,4375.512695,4416.025879,4246.794922,4418.589844
1698668231.270484,0.0,4322.94873,4386.025879,4302.05127,4351.410156,4398.461426,4405.897461,4418.205078,4477.179688,4426.410156,4374.743652,4415.256348,4246.922852,4417.820313
1698668231.278292,0.0,4320.384766,4385.641113,4305.128418,4352.820313,4399.230957,4404.102539,4417.179688,4470.0,4424.871582,4375.769043,4420.641113,4253.461426,4417.820313
1698668231.286101,0.0,4314.102539,4380.512695,4291.282227,4351.025879,4399.230957,4407.307617,4420.769043,4468.333496,4426.025879,4372.692383,4415.128418,4243.589844,4419.358887
1698668231.293909,0.0,4322.307617,4378.974121,4296.410156,4353.717773,4396.410156,4405.384766,4420.256348,4478.333496,4425.256348,4370.128418,4416.410156,4246.666504,4421.410156
1698668231.301717,0.0,4322.05127,4384.358887,4298.846191,4355.769043,4395.512695,4405.256348,4417.307617,4480.384766,4427.820313,4374.743652,4419.230957,4250.897461,4422.692383
1698668231.309525,0.0,4317.436035,4382.94873,4294.230957,4351.282227,4396.922852,4407.692383,4416.666504,4473.205078,4428.077148,4373.846191,4416.410156,4245.0,4420.641113
1698668231.317333,0.0,4320.0,4377.436035,4305.384766,4352.563965,4396.153809,4407.820313,4416.153809,4471.922852,4427.94873,4376.922852,4417.179688,4250.897461,4419.230957
1698668231.325142,0.0,4320.0,4381.794922,4301.794922,4352.563965,4397.436035,4408.205078,4420.897461,4475.641113,4426.282227,4379.615234,4414.102539,4241.538574,4416.794922
1698668231.33295,0.0,4319.230957,4381.410156,4293.461426,4352.307617,4397.307617,4404.743652,4420.128418,4472.05127,4423.846191,4372.436035,4417.436035,4248.333496,4415.384766
1698668231.340758,0.0,4310.512695,4385.256348,4294.871582,4353.077148,4393.717773,4406.666504,4417.94873,4462.692383,4426.922852,4372.05127,4422.05127,4259.743652,4417.179688
1698668231.348566,0.0,4312.563965,4389.230957,4300.641113,4351.922852,4395.0,4412.436035,4420.897461,4466.153809,4426.794922,4374.358887,4420.384766,4246.282227,4418.461426
1698668231.356375,0.0,4320.128418,4382.563965,4303.846191,4352.820313,4398.461426,4407.436035,4420.128418,4475.897461,4426.922852,4375.0,4419.615234,4248.461426,4417.307617
1698668231.364183,0.0,4315.128418,4385.769043,4290.512695,4351.410156,4398.205078,4406.410156,4422.179688,4475.256348,4427.179688,4375.0,4416.025879,4242.563965,4415.384766
1698668231.371991,0.0,4319.871582,4381.025879,4291.282227,4352.820313,4396.666504,4408.333496,4419.871582,4468.846191,4424.871582,4374.615234,4418.461426,4245.641113,4418.461426
1698668231.379799,0.0,4320.0,4376.282227,4302.692383,4356.025879,4398.077148,4405.641113,4417.436035,4470.641113,4426.410156,4377.436035,4420.384766,4257.94873,4420.769043
1698668231.387607,0.0,4314.230957,4383.077148,4301.153809,4352.820313,4399.230957,4405.256348,4421.794922,4474.230957,4426.025879,4376.410156,4416.794922,4244.871582,4415.384766
1698668231.395416,0.0,4324.358887,4378.333496,4295.897461,4353.846191,4397.05127,4402.179688,4418.333496,4470.128418,4426.153809,4378.589844,4421.025879,4253.461426,4415.769043
1698668231.403224,0.0,4325.0,4379.102539,4285.769043,4356.538574,4396.025879,4401.282227,4418.974121,4468.846191,4426.410156,4378.717773,4421.410156,4255.897461,4420.128418
1698668231.411032,0.0,4322.307617,4381.410156,4295.0,4355.256348,4395.769043,4403.589844,4422.436035,4474.102539,4422.820313,4373.717773,4421.794922,4248.205078,4418.333496
1698668231.41884,0.0,4322.436035,4378.846191,4307.05127,4354.871582,4394.743652,4406.666504,4418.589844,4473.333496,4428.974121,4375.512695,4423.846191,4256.538574,4419.615234
1698668231.426649,0.0,4315.0,4385.769043,4296.794922,4353.717773,4396.666504,4408.077148,4420.897461,4467.820313,4434.230957,4377.05127,4417.820313,4247.820313,4419.871582
1698668231.434457,0.0,4315.128418,4387.563965,4302.436035,4355.256348,4397.94873,4404.358887,4420.897461,4471.794922,4429.230957,4378.974121,4419.102539,4248.461426,4417.820313
1698668231.442265,0.0,4316.666504,4382.179688,4304.743652,4355.512695,4396.666504,4409.230957,4418.589844,4476.282227,4427.692383,4379.615234,4419.487305,4251.666504,4419.871582
1698668231.450073,0.0,4320.769043,4382.820313,4292.179688,4352.94873,4395.128418,4411.410156,4421.153809,4472.436035,4429.487305,4376.666504,4417.563965,4250.769043,4418.717773
1698668231.457881,0.0,4321.410156,4387.563965,4289.743652,4354.487305,4396.666504,4403.461426,4419.615234,4471.025879,4431.794922,4379.358887,4422.307617,4256.410156,4418.974121
1698668231.46569,0.0,4316.282227,4382.692383,4290.0,4352.820313,4400.0,4404.358887,4417.94873,4477.307617,4431.153809,4378.974121,4420.512695,4243.589844,4420.384766
1698668231.473498,0.0,4325.384766,4373.846191,4298.077148,4354.102539,4398.077148,4408.205078,4418.205078,4481.666504,4430.128418,4378.333496,4420.384766,4248.717773,4419.230957
1698668231.481306,0.0,4320.769043,4379.487305,4296.410156,4356.025879,4396.025879,4406.794922,4420.128418,4476.153809,4432.436035,4382.179688,4420.384766,4254.743652,4419.230957
1698668231.489114,0.0,4310.641113,4382.307617,4287.94873,4352.179688,4397.94873,4401.922852,4421.666504,4473.077148,4429.615234,4380.256348,4423.077148,4244.615234,4414.743652
1698668231.496922,0.0,4313.717773,4380.384766,4295.128418,4352.820313,4397.692383,4400.641113,4418.333496,4475.128418,4432.307617,4380.128418,4428.205078,4255.769043,4412.179688
1698668231.504731,0.0,4315.0,4385.0,4292.692383,4352.307617,4396.922852,4407.820313,4419.487305,4476.282227,4436.153809,4378.717773,4419.871582,4250.0,4417.820313
1698668231.512539,0.0,4320.384766,4379.487305,4293.205078,4351.666504,4398.974121,4407.692383,4420.128418,4479.102539,4432.307617,4377.307617,4418.846191,4243.846191,4417.820313
1698668231.520347,0.0,4318.077148,4379.487305,4297.94873,4352.05127,4399.358887,4404.230957,4414.487305,4479.743652,4431.410156,4382.179688,4422.94873,4249.487305,4415.128418
1698668231.528155,0.0,4314.102539,4387.820313,4299.358887,4350.512695,4396.025879,4407.05127,4417.820313,4474.743652,4426.922852,4377.563965,4417.436035,4242.307617,4414.358887
1698668231.535964,0.0,4317.436035,4382.692383,4303.717773,4353.461426,4394.871582,4405.0,4424.102539,4470.769043,4425.128418,4375.512695,4421.538574,4253.077148,4417.05127
1698668231.543772,0.0,4314.230957,4384.487305,4296.922852,4353.717773,4396.538574,4406.282227,4422.436035,4472.563965,4431.025879,4379.871582,4421.666504,4246.282227,4419.743652
1698668231.55158,0.0,4319.871582,4381.666504,4298.077148,4353.846191,4396.025879,4407.820313,4418.333496,4481.410156,4430.0,4377.307617,4418.974121,4238.205078,4415.0
1698668231.559388,0.0,4323.461426,4377.563965,4303.333496,4357.436035,4397.179688,4406.794922,4420.0,4484.358887,4429.230957,4377.436035,4422.05127,4250.384766,4413.974121
1698668231.567196,0.0,4315.384766,4388.974121,4298.717773,4355.384766,4399.871582,4409.615234,4425.897461,4477.307617,4429.871582,4376.666504,4417.563965,4243.461426,4415.256348
1698668231.575005,0.0,4317.692383,4383.846191,4301.282227,4353.974121,4398.205078,4407.692383,4424.230957,4478.846191,4429.615234,4376.666504,4417.820313,4251.794922,4413.077148
1698668231.582813,0.0,4321.153809,4380.897461,4296.794922,4354.487305,4396.794922,4410.0,4419.487305,4486.666504,4430.897461,4378.589844,4418.077148,4251.666504,4413.461426
1698668231.590621,0.0,4316.538574,4388.077148,4296.538574,4352.820313,4397.94873,4412.307617,4418.717773,4484.615234,4427.820313,4375.512695,4416.410156,4239.743652,4414.230957
1698668231.598429,0.0,4310.384766,4386.794922,4301.922852,4354.358887,4398.077148,4407.820313,4419.615234,4476.025879,4430.384766,4378.333496,4418.974121,4250.512695,4413.846191
1698668231.606238,0.0,4315.641113,4382.563965,4297.692383,4356.282227,4397.436035,4408.589844,4420.769043,4481.282227,4430.512695,4378.846191,4413.717773,4244.102539,4414.230957
1698668231.614046,0.0,4325.641113,4379.487305,4301.922852,4357.05127,4397.05127,4408.846191,4418.461426,4488.205078,4427.307617,4377.563965,4415.512695,4242.179688,4414.871582
1698668231.621854,0.0,4315.641113,4385.897461,4298.205078,4355.641113,4397.563965,4408.205078,4421.538574,4478.974121,4431.794922,4382.05127,4419.102539,4241.538574,4416.538574
1698668231.629662,0.0,4313.717773,4383.846191,4288.846191,4352.94873,4397.692383,4407.307617,4423.717773,4477.820313,4429.102539,4378.205078,4417.179688,4236.666504,4417.307617
1698668231.63747,0.0,4325.897461,4375.641113,4293.846191,4355.256348,4396.538574,4406.922852,4419.487305,4491.282227,4428.333496,4375.641113,4416.538574,4250.512695,4415.641113
1698668231.645279,0.0,4318.461426,4382.692383,4294.615234,4353.461426,4396.153809,4407.94873,4422.436035,4493.333496,4429.871582,4375.897461,4413.717773,4245.512695,4414.487305
1698668231.653087,0.0,4312.307617,4388.077148,4296.794922,4352.820313,4396.666504,4403.333496,4422.05127,4480.769043,4426.153809,4374.615234,4416.410156,4242.563965,4413.974121
1698668231.660895,0.0,4315.769043,4384.487305,4294.743652,4353.974121,4397.436035,4405.384766,4417.436035,4478.077148,4429.743652,4377.05127,4415.897461,4244.615234,4413.974121
1698668231.668703,0.0,4319.487305,4381.666504,4296.794922,4351.153809,4397.307617,4410.0,4418.974121,4488.205078,4431.153809,4375.256348,4412.307617,4239.358887,4413.205078
1698668231.676511,0.0,4318.974121,4383.205078,4308.077148,4353.205078,4396.025879,4405.897461,4417.94873,4488.077148,4428.077148,4375.897461,4417.307617,4248.974121,4413.333496
1698668231.68432,0.0,4308.461426,4388.077148,4294.102539,4352.94873,4396.666504,4406.666504,4420.256348,4478.589844,4426.153809,4377.692383,4418.846191,4243.077148,4411.666504
1698668231.692128,0.0,4311.666504,4386.666504,4286.282227,4353.205078,4397.436035,4407.563965,4425.384766,4477.563965,4425.0,4376.538574,4421.153809,4246.025879,4410.897461
1698668231.699936,0.0,4317.692383,4382.179688,4291.922852,4355.0,4397.436035,4407.307617,4423.974121,4480.384766,4428.461426,4376.538574,4419.358887,4256.282227,4416.153809
1698668231.707744,0.0,4313.974121,4380.384766,4285.641113,4352.563965,4398.717773,4408.717773,4420.384766,4480.641113,4426.922852,4373.461426,4414.743652,4241.794922,4417.179688
1698668231.715553,0.0,4315.256348,4380.0,4290.512695,4356.282227,4398.333496,4403.974121,4418.205078,4480.256348,4426.153809,4374.358887,4424.358887,4247.436035,4412.820313
1698668231.723361,0.0,4316.666504,4385.384766,4292.307617,4356.666504,4397.05127,4406.666504,4419.615234,4481.794922,4428.974121,4376.922852,4425.256348,4247.307617,4410.512695
1698668231.731169,0.0,4321.538574,4383.333496,4289.743652,4351.410156,4396.922852,4411.153809,4419.871582,4488.589844,4425.512695,4372.820313,4415.897461,4239.871582,4411.153809
1698668231.738977,0.0,4321.282227,4380.512695,4293.846191,4354.230957,4397.436035,4406.538574,4419.487305,4486.794922,4427.179688,4374.615234,4412.820313,4247.94873,4413.077148
1698668231.746786,0.0,4316.922852,4385.512695,4291.794922,4357.05127,4397.94873,4408.077148,4421.538574,4479.230957,4427.94873,4376.538574,4413.974121,4244.743652,4411.666504
1698668231.754594,0.0,4313.333496,4383.589844,4292.820313,4354.743652,4395.384766,4407.820313,4417.179688,4482.179688,4426.025879,4375.897461,4420.512695,4256.153809,4411.666504
1698668231.762402,0.0,4305.897461,4389.102539,4293.461426,4350.769043,4395.0,4405.641113,4417.307617,4483.846191,4428.717773,4377.179688,4416.025879,4250.769043,4410.769043
1698668231.77021,0.0,4317.307617,4390.256348,4296.282227,4351.922852,4397.307617,4407.820313,4422.179688,4481.025879,4426.538574,4374.358887,4412.179688,4234.871582,4405.641113
1698668231.778018,0.0,4325.0,4381.153809,4294.871582,4354.871582,4399.487305,4409.615234,4421.025879,4481.153809,4427.563965,4375.897461,4422.179688,4251.794922,4407.820313
1698668231.785827,0.0,4311.282227,4387.179688,4288.077148,4352.692383,4401.282227,4408.974121,4423.461426,4480.512695,4429.358887,4374.230957,4421.025879,4249.102539,4410.384766
1698668231.793635,0.0,4310.897461,4389.743652,4300.0,4355.384766,4398.589844,4402.94873,4423.846191,4479.743652,4425.0,4371.666504,4418.077148,4244.615234,4407.94873
1698668231.801443,0.0,4314.487305,4385.512695,4297.692383,4356.025879,4396.922852,4404.230957,4421.410156,4480.897461,4425.641113,4376.794922,4416.153809,4244.102539,4407.820313
1698668231.809251,0.0,4310.0,4383.717773,4284.487305,4351.666504,4399.102539,4408.077148,4422.692383,4478.846191,4423.846191,4374.615234,4413.077148,4239.871582,4408.974121
1698668231.817059,0.0,4306.666504,4383.333496,4290.897461,4352.563965,4398.205078,4407.179688,4421.794922,4476.025879,4426.282227,4375.512695,4418.846191,4256.025879,4411.282227
1698668231.824868,0.0,4308.333496,4388.461426,4287.820313,4352.179688,4398.717773,4409.230957,4421.922852,4483.461426,4431.538574,4377.436035,4417.436035,4248.717773,4410.897461
1698668231.832676,0.0,4320.0,4382.179688,4288.077148,4354.871582,4400.0,4404.230957,4419.743652,4490.256348,4426.794922,4374.487305,4416.794922,4247.436035,4408.333496
1698668231.840484,0.0,4320.512695,4382.563965,4290.897461,4358.589844,4397.94873,4401.282227,4418.333496,4485.512695,4426.153809,4376.538574,4422.179688,4257.692383,4412.436035
1698668231.848292,0.0,4315.384766,4387.436035,4284.871582,4353.333496,4396.538574,4406.410156,4421.794922,4481.410156,4426.282227,4373.589844,4421.922852,4247.436035,4415.256348
1698668231.8561,0.0,4321.025879,4377.563965,4289.102539,4353.077148,4397.436035,4403.461426,4419.743652,4486.153809,4423.717773,4370.384766,4418.461426,4254.358887,4412.563965
1698668231.863909,0.0,4320.641113,4381.538574,4290.384766,4354.743652,4398.205078,4405.256348,4420.384766,4486.922852,4424.871582,4373.205078,4411.666504,4249.615234,4409.358887
1698668231.871717,0.0,4324.102539,4386.153809,4295.384766,4352.436035,4399.487305,4411.282227,4420.256348,4480.641113,4424.230957,4372.563965,4416.538574,4244.230957,4406.538574
1698668231.879525,0.0,4324.230957,4376.666504,4294.358887,4353.333496,4398.333496,4409.743652,4416.922852,4476.538574,4426.025879,4372.820313,4420.512695,4258.205078,4407.179688
1698668231.887334,0.0,4315.769043,4376.153809,4284.615234,4352.563965,4394.615234,4409.358887,4420.256348,4479.230957,4424.358887,4372.94873,4413.461426,4246.922852,4407.563965
1698668231.895142,0.0,4320.512695,4382.436035,4294.743652,4354.871582,4395.256348,4407.563965,4419.871582,4487.307617,4425.0,4372.94873,4416.282227,4244.230957,4406.666504
1698668231.90295,0.0,4320.0,4387.692383,4296.538574,4356.153809,4400.128418,4406.025879,4418.461426,4491.153809,4430.0,4371.025879,4414.102539,4242.563965,4409.230957
1698668231.910758,0.0,4318.974121,4383.461426,4294.487305,4353.461426,4399.871582,4406.025879,4420.641113,4487.179688,4427.179688,4369.102539,4410.512695,4235.384766,4410.256348
1698668231.918566,0.0,4319.871582,4383.589844,4299.871582,4354.743652,4396.538574,4408.333496,4422.179688,4480.897461,4426.922852,4375.769043,4413.717773,4243.205078,4408.846191
1698668231.926375,0.0,4312.436035,4389.615234,4297.307617,4352.563965,4397.179688,4410.641113,4424.102539,4477.179688,4428.205078,4374.743652,4411.410156,4234.615234,4406.666504
1698668231.934183,0.0,4312.820313,4384.102539,4301.282227,4350.0,4397.307617,4406.025879,4420.641113,4478.461426,4426.538574,4371.666504,4415.128418,4240.641113,4407.307617
1698668231.941991,0.0,4313.205078,4384.102539,4293.205078,4351.153809,4397.179688,4405.897461,4418.333496,4476.922852,4426.410156,4376.538574,4416.538574,4246.410156,4410.641113
1698668231.949799,0.0,4314.487305,4386.025879,4284.102539,4353.333496,4398.077148,4405.256348,4420.256348,4475.769043,4423.205078,4373.974121,4416.410156,4236.666504,4409.487305
1698668231.957607,0.0,4315.512695,4381.922852,4297.436035,4353.461426,4397.820313,4402.820313,4418.333496,4482.692383,4425.512695,4374.487305,4416.922852,4242.820313,4407.820313
1698668231.965416,0.0,4317.563965,4385.256348,4299.743652,4351.538574,4398.717773,4411.538574,4418.461426,4490.769043,4427.436035,4376.153809,4406.538574,4238.461426,4409.230957
1698668231.973224,0.0,4324.871582,4384.102539,4295.128418,4356.153809,4399.487305,4411.282227,4419.743652,4486.025879,4424.230957,4372.436035,4409.102539,4248.205078,4411.025879
1698668231.981032,0.0,4315.256348,4384.102539,4287.563965,4357.307617,4398.589844,4401.922852,4419.102539,4479.487305,4427.179688,4373.205078,4416.794922,4255.384766,4412.563965
1698668231.98884,0.0,4310.128418,4385.256348,4285.769043,4351.025879,4395.897461,4404.102539,4421.538574,4484.743652,4426.025879,4371.794922,4411.794922,4239.358887,4411.282227
1698668231.996648,0.0,4321.025879,4381.666504,4298.589844,4352.820313,4394.487305,4408.717773,4422.692383,4486.282227,4424.102539,4371.794922,4412.05127,4246.794922,4411.153809
1698668232.004457,0.0,4317.179688,4386.922852,4290.769043,4353.846191,4396.410156,4408.461426,4422.692383,4480.897461,4427.179688,4371.538574,4413.077148,4242.307617,4410.769043
1698668232.012265,0.0,4305.897461,4385.769043,4285.897461,4350.256348,4396.922852,4404.230957,4421.282227,4479.615234,4424.358887,4368.974121,4413.717773,4237.563965,4407.179688
1698668232.020073,0.0,4305.384766,4382.05127,4292.563965,4351.410156,4396.282227,4405.0,4420.641113,4477.307617,4424.743652,4372.436035,4413.717773,4245.256348,4408.333496
1698668232.027881,0.0,4317.820313,4386.025879,4285.769043,4353.461426,4397.563965,4410.0,4423.846191,4477.94873,4426.794922,4371.410156,4410.512695,4241.538574,4411.410156
1698668232.035689,0.0,4321.794922,4384.230957,4286.922852,4355.512695,4397.179688,4406.922852,4422.563965,4484.743652,4424.743652,4371.025879,4414.102539,4255.512695,4412.05127
1698668232.043498,0.0,4308.974121,4387.179688,4289.615234,4356.794922,4396.153809,4407.05127,4422.307617,4484.871582,4421.538574,4372.692383,4415.128418,4250.897461,4410.0
1698668232.051306,0.0,4313.333496,4388.205078,4291.794922,4356.666504,4398.974121,4409.358887,4422.05127,4479.487305,4420.384766,4371.025879,4415.769043,4237.692383,4406.025879
1698668232.059114,0.0,4320.384766,4382.179688,4289.615234,4352.436035,4401.282227,4409.102539,4420.128418,4481.025879,4425.128418,4373.333496,4417.820313,4248.333496,4407.563965
1698668232.066923,0.0,4311.025879,4382.94873,4280.384766,4349.102539,4401.025879,4410.0,4422.94873,4482.179688,4424.102539,4371.410156,4414.871582,4242.179688,4410.512695
1698668232.074731,0.0,4310.256348,4383.974121,4289.102539,4354.230957,4398.333496,4407.307617,4421.025879,4477.436035,4421.794922,4370.384766,4420.0,4242.179688,4411.666504
1698668232.082539,0.0,4310.641113,4388.333496,4295.512695,4354.871582,4396.922852,4408.077148,4421.025879,4477.94873,4425.384766,4372.05127,4417.94873,4240.512695,4410.512695
1698668232.090347,0.0,4315.769043,4389.358887,4295.256348,4353.077148,4397.307617,4409.102539,4423.205078,4481.922852,4422.820313,4370.384766,4409.743652,4232.563965,4405.897461
1698668232.098155,0.0,4321.153809,4384.743652,4294.358887,4356.025879,4397.436035,4408.333496,4422.307617,4481.153809,4422.692383,4373.461426,4410.256348,4237.94873,4408.846191
1698668232.105964,0.0,4316.538574,4385.256348,4286.025879,4352.563965,4400.128418,4411.794922,4426.410156,4479.615234,4423.461426,4372.692383,4407.692383,4231.666504,4413.846191
1698668232.113772,0.0,4317.179688,4385.128418,4293.589844,4352.692383,4402.563965,4408.974121,4424.871582,4478.205078,4420.769043,4368.717773,4412.563965,4240.641113,4410.256348
1698668232.12158,0.0,4312.563965,4390.897461,4299.615234,4356.666504,4401.922852,4407.692383,4421.282227,4474.487305,4424.230957,4371.922852,4415.641113,4247.307617,4408.589844
1698668232.129388,0.0,4313.589844,4391.025879,4295.128418,4353.846191,4399.102539,4408.333496,4423.717773,4474.615234,4424.102539,4372.692383,4410.897461,4238.717773,4409.487305
1698668232.137196,0.0,4322.179688,4383.205078,4292.05127,4355.0,4396.666504,4404.102539,4422.94873,4477.179688,4421.282227,4369.487305,4413.205078,4250.641113,4409.487305
1698668232.145005,0.0,4313.205078,4388.589844,4281.153809,4352.692383,4395.897461,4407.307617,4421.410156,4472.436035,4418.974121,4364.743652,4413.846191,4242.94873,4410.0
1698668232.152813,0.0,4306.922852,4390.128418,4286.794922,4349.615234,4395.897461,4409.102539,4419.871582,4468.846191,4418.333496,4366.538574,4416.025879,4234.358887,4410.128418
1698668232.160621,0.0,4309.358887,4386.922852,4295.256348,4354.230957,4398.461426,4407.05127,4421.922852,4475.0,4424.487305,4375.897461,4412.563965,4235.769043,4410.512695
1698668232.168429,0.0,4317.05127,4384.358887,4287.563965,4356.922852,4398.974121,4408.717773,4424.230957,4482.563965,4423.589844,4373.077148,4404.871582,4230.512695,4411.794922
1698668232.176237,0.0,4319.871582,4380.0,4286.538574,4354.743652,4396.538574,4406.153809,4418.589844,4480.0,4419.871582,4369.358887,4412.820313,4247.94873,4411.410156
1698668232.184046,0.0,4306.794922,4390.512695,4286.794922,4351.410156,4397.179688,4406.410156,4420.256348,4471.922852,4420.897461,4370.641113,4415.128418,4244.871582,4405.512695
1698668232.191854,0.0,4306.025879,4395.641113,4295.384766,4354.615234,4397.692383,4407.307617,4425.641113,4471.538574,4420.0,4368.461426,4413.077148,4236.794922,4404.487305
1698668232.199662,0.0,4313.461426,4387.307617,4300.512695,4355.512695,4397.692383,4408.717773,4424.615234,4475.512695,4421.666504,4370.0,4412.692383,4244.487305,4409.358887
1698668232.20747,0.0,4316.153809,4385.256348,4291.410156,4350.0,4399.358887,4413.589844,4424.743652,4476.666504,4420.641113,4369.358887,4407.436035,4231.538574,4408.717773
1698668232.215279,0.0,4314.230957,4384.487305,4292.05127,4354.871582,4399.358887,4409.230957,4421.282227,4472.692383,4420.0,4370.0,4412.820313,4242.692383,4408.717773
1698668232.223087,0.0,4305.256348,4388.077148,4288.717773,4357.436035,4398.846191,4407.179688,4419.743652,4472.307617,4422.692383,4369.871582,4413.205078,4246.282227,4408.205078
1698668232.230895,0.0,4313.077148,4385.897461,4290.769043,4352.307617,4398.589844,4410.384766,4420.769043,4479.615234,4419.871582,4366.922852,4408.846191,4234.615234,4405.384766
1698668232.238703,0.0,4318.974121,4382.94873,4296.153809,4354.487305,4397.05127,4407.692383,4419.743652,4478.589844,4420.641113,4371.153809,4412.436035,4247.563965,4409.230957
1698668232.246512,0.0,4307.820313,4387.563965,4286.666504,4354.743652,4397.05127,4406.153809,4423.974121,4471.282227,4422.05127,4370.128418,4411.666504,4239.358887,4410.641113
1698668232.25432,0.0,4309.487305,4382.820313,4294.743652,4350.128418,4398.077148,4407.05127,4421.282227,4471.922852,4419.615234,4367.436035,4413.077148,4233.333496,4405.641113
1698668232.262128,0.0,4311.922852,4384.615234,4302.179688,4352.692383,4398.846191,4410.128418,4418.846191,4477.307617,4421.153809,4369.615234,4409.615234,4236.025879,4407.692383
1698668232.269936,0.0,4315.641113,4383.974121,4293.846191,4358.461426,4398.717773,4408.077148,4423.974121,4475.641113,4420.512695,4367.307617,4407.820313,4238.333496,4409.743652
1698668232.277744,0.0,4319.743652,4380.641113,4289.358887,4358.846191,4397.436035,4405.512695,4424.871582,4469.743652,4421.025879,4369.487305,4413.846191,4250.384766,4408.589844
1698668232.285553,0.0,4315.256348,4389.743652,4281.282227,4352.179688,4397.94873,4411.153809,4425.256348,4474.230957,4420.128418,4371.025879,4412.05127,4234.615234,4408.333496
1698668232.293361,0.0,4319.615234,4385.769043,4286.410156,4351.922852,4398.717773,4409.102539,4423.333496,4481.794922,4419.102539,4367.692383,4413.589844,4234.358887,4406.410156
1698668232.301169,0.0,4319.358887,4380.641113,4290.128418,4354.487305,4398.717773,4406.794922,4422.05127,4477.307617,4423.589844,4367.94873,4413.077148,4248.205078,4410.0
1698668232.308977,0.0,4319.230957,4384.871582,4283.717773,4351.794922,4399.743652,4411.538574,4422.179688,4470.897461,4420.256348,4367.05127,4408.461426,4238.461426,4411.538574
1698668232.316785,0.0,4321.666504,4386.025879,4291.282227,4354.871582,4400.128418,4407.94873,4420.0,4470.256348,4418.717773,4370.769043,4414.615234,4241.794922,4408.333496
1698668232.324594,0.0,4313.846191,4389.871582,4288.974121,4355.512695,4399.487305,4404.358887,4424.358887,4470.769043,4421.410156,4370.769043,4412.692383,4236.922852,4410.256348
1698668232.332402,0.0,4318.461426,4385.769043,4284.871582,4355.128418,4398.717773,4405.641113,4424.743652,4475.384766,4417.94873,4365.384766,4408.589844,4231.538574,4413.333496
1698668232.34021,0.0,4322.436035,4383.974121,4284.743652,4357.820313,4398.974121,4408.077148,4421.153809,4477.563965,4421.410156,4369.230957,4411.282227,4240.897461,4412.94873
1698668232.348018,0.0,4318.333496,4390.0,4284.230957,4356.025879,4400.128418,4409.615234,4424.230957,4474.743652,4422.05127,4369.743652,4409.743652,4237.436035,4409.487305
1698668232.355827,0.0,4318.461426,4386.282227,4293.077148,4356.025879,4399.102539,4406.410156,4422.94873,4477.94873,4419.230957,4366.922852,4409.743652,4243.846191,4407.692383
1698668232.363635,0.0,4311.153809,4385.769043,4286.666504,4352.820313,4398.846191,4408.846191,4421.025879,4477.307617,4420.897461,4365.897461,4407.179688,4233.461426,4410.384766
1698668232.371443,0.0,4312.692383,4386.666504,4283.846191,4352.05127,4398.077148,4412.692383,4423.333496,4469.230957,4417.820313,4365.128418,4410.128418,4229.487305,4412.307617
1698668232.379251,0.0,4317.436035,4382.179688,4291.153809,4356.153809,4397.94873,4411.538574,4422.692383,4474.743652,4420.0,4370.0,4411.922852,4246.922852,4412.436035
1698668232.387059,0.0,4314.871582,4385.128418,4288.846191,4354.487305,4399.230957,4411.282227,4423.974121,4481.025879,4420.897461,4370.384766,4404.871582,4233.974121,4410.512695
1698668232.394868,0.0,4318.974121,4383.717773,4294.487305,4355.384766,4397.05127,4408.846191,4421.282227,4470.512695,4418.333496,4367.94873,4408.589844,4236.666504,4410.256348
1698668232.402676,0.0,4315.769043,4383.846191,4293.205078,4354.743652,4396.410156,4410.769043,4419.102539,4465.641113,4421.025879,4367.692383,4407.820313,4242.94873,4411.410156
1698668232.410484,0.0,4312.179688,4385.512695,4293.589844,4352.820313,4398.589844,4409.230957,4423.589844,4475.512695,4419.615234,4365.769043,4405.128418,4231.410156,4410.0
1698668232.418292,0.0,4312.179688,4383.846191,4297.563965,4355.512695,4398.205078,4404.358887,4424.230957,4477.820313,4420.128418,4368.717773,4410.0,4236.794922,4410.384766
1698668232.426101,0.0,4312.692383,4387.692383,4286.794922,4355.256348,4397.563965,4409.871582,4422.179688,4473.717773,4420.769043,4368.077148,4406.666504,4235.256348,4409.615234
1698668232.433909,0.0,4317.94873,4383.589844,4287.179688,4354.615234,4400.128418,4409.230957,4420.128418,4474.230957,4419.615234,4366.153809,4410.769043,4241.666504,4409.230957
1698668232.441717,0.0,4314.615234,4381.025879,4287.179688,4354.487305,4399.358887,4406.666504,4421.410156,4472.94873,4421.794922,4367.94873,4415.769043,4241.410156,4413.333496
1698668232.449525,0.0,4314.871582,4381.282227,4286.025879,4352.692383,4395.512695,4410.0,4425.256348,4473.077148,4419.102539,4366.282227,4410.256348,4228.589844,4413.205078
1698668232.457333,0.0,4319.487305,4381.666504,4295.256348,4353.205078,4395.641113,4410.128418,4423.333496,4474.358887,4418.974121,4368.717773,4408.717773,4241.410156,4412.692383
1698668232.465142,0.0,4319.230957,4388.205078,4288.974121,4352.820313,4398.589844,4410.897461,4422.307617,4472.563965,4418.717773,4367.94873,4406.666504,4239.230957,4415.897461
1698668232.47295,0.0,4323.205078,4382.820313,4288.077148,4353.846191,4396.922852,4408.846191,4421.794922,4475.128418,4415.256348,4364.615234,4409.102539,4227.436035,4414.230957
1698668232.480758,0.0,4318.077148,4383.846191,4295.256348,4354.102539,4395.512695,4410.256348,4422.94873,4476.794922,4418.461426,4367.94873,4408.589844,4235.384766,4411.025879
1698668232.488566,0.0,4309.230957,4391.282227,4295.897461,4353.077148,4398.461426,4414.743652,4425.641113,4471.153809,4420.128418,4365.897461,4405.128418,4241.153809,4411.666504
1698668232.496374,0.0,4311.794922,4387.179688,4299.487305,4357.692383,4397.436035,4409.358887,4421.794922,4466.025879,4419.487305,4366.666504,4415.384766,4246.025879,4414.230957
1698668232.504183,0.0,4310.641113,4388.717773,4290.512695,4355.0,4396.282227,4408.333496,4421.794922,4466.794922,4416.922852,4368.589844,4416.794922,4231.794922,4413.589844
1698668232.511991,0.0,4311.794922,4390.512695,4287.307617,4349.743652,4398.461426,4411.922852,4423.974121,4467.563965,4412.820313,4366.666504,4409.743652,4205.641113,4412.179688
1698668232.519799,0.0,4317.94873,4381.794922,4299.358887,4355.384766,4397.692383,4409.102539,4423.461426,4469.102539,4418.077148,4368.846191,4411.410156,4256.922852,4412.692383
1698668232.527607,0.0,4316.538574,4382.05127,4295.641113,4354.230957,4396.666504,4407.179688,4422.94873,4470.384766,4424.743652,4370.897461,4408.077148,4258.974121,4411.666504
1698668232.535416,0.0,4308.333496,4400.769043,4280.769043,4347.94873,4400.128418,4413.589844,4421.410156,4463.461426,4417.05127,4362.436035,4407.692383,4199.743652,4417.692383
1698668232.543224,0.0,4308.333496,4405.0,4275.384766,4342.94873,4401.794922,4422.05127,4429.743652,4464.615234,4404.487305,4349.615234,4416.282227,4222.05127,4423.333496
1698668232.551032,0.0,4327.692383,4382.436035,4293.974121,4345.512695,4398.846191,4413.589844,4429.615234,4481.538574,4407.307617,4355.128418,4425.256348,4243.333496,4419.102539
1698668232.55884,0.0,4327.436035,4377.94873,4303.974121,4352.94873,4398.974121,4404.102539,4417.94873,4482.436035,4408.974121,4361.794922,4429.871582,4164.358887,4419.230957
1698668232.566648,0.0,4317.692383,4387.436035,4293.333496,4349.615234,4401.282227,4408.077148,4420.897461,4472.563965,4401.666504,4356.538574,4427.563965,4084.230713,4422.307617
1698668232.574457,0.0,4326.666504,4379.487305,4298.846191,4350.0,4399.615234,4403.974121,4424.358887,4473.333496,4407.436035,4361.538574,4427.436035,4135.512695,4421.794922
1698668232.582265,0.0,4318.717773,4381.666504,4300.641113,4354.358887,4397.692383,4401.794922,4421.153809,4472.05127,4413.205078,4366.538574,4424.102539,4204.487305,4420.769043
1698668232.590073,0.0,4313.333496,4387.820313,4297.179688,4352.179688,4397.179688,4404.487305,4419.230957,4472.94873,4406.794922,4363.333496,4425.128418,4199.743652,4420.512695
1698668232.597881,0.0,4317.179688,4379.615234,4294.871582,4353.461426,4395.128418,4402.820313,4419.230957,4476.025879,4408.205078,4365.128418,4434.358887,4206.538574,4420.769043
1698668232.60569,0.0,4309.743652,4380.769043,4282.436035,4353.589844,4395.0,4405.512695,4425.256348,4472.307617,4410.256348,4363.077148,4426.538574,4162.563965,4419.743652
1698668232.613498,0.0,4314.358887,4380.384766,4292.179688,4355.384766,4396.153809,4405.256348,4423.589844,4469.743652,4407.05127,4357.692383,4422.307617,4149.358887,4419.358887
1698668232.621306,0.0,4317.820313,4379.871582,4297.05127,4357.820313,4396.153809,4407.307617,4419.102539,4467.179688,4412.436035,4360.897461,4423.717773,4195.641113,4423.077148
1698668232.629114,0.0,4315.256348,4385.384766,4288.846191,4355.0,4396.922852,4411.794922,4423.461426,4470.641113,4411.410156,4359.871582,4420.769043,4231.794922,4420.897461
1698668232.636922,0.0,4317.692383,4386.538574,4298.333496,4355.0,4398.461426,4407.692383,4424.358887,4474.358887,4408.333496,4360.512695,4426.666504,4208.205078,4420.641113
1698668232.644731,0.0,4315.384766,4387.563965,4293.846191,4352.307617,4398.205078,4407.436035,4423.205078,4471.666504,4411.410156,4363.205078,4426.025879,4141.538574,4423.461426
1698668232.652539,0.0,4313.974121,4381.410156,4290.512695,4349.743652,4395.769043,4408.461426,4422.307617,4470.256348,4410.0,4360.128418,4428.461426,4140.0,4418.589844
1698668232.660347,0.0,4311.153809,4385.128418,4296.538574,4353.589844,4397.179688,4407.436035,4420.256348,4471.410156,4412.307617,4361.794922,4428.846191,4205.769043,4417.692383
1698668232.668155,0.0,4311.922852,4388.846191,4286.410156,4353.077148,4400.0,4407.563965,4422.179688,4473.717773,4412.307617,4359.358887,4420.128418,4232.820313,4419.743652
1698668232.675964,0.0,4318.205078,4377.307617,4283.846191,4351.666504,4397.692383,4403.717773,4420.128418,4472.820313,4411.538574,4357.307617,4422.692383,4210.897461,4419.358887
1698668232.683772,0.0,4315.128418,4380.256348,4287.436035,4352.436035,4396.153809,4406.410156,4418.461426,4470.641113,4411.922852,4356.794922,4421.794922,4159.615234,4420.512695
1698668232.69158,0.0,4314.487305,4384.102539,4290.897461,4353.333496,4398.461426,4407.179688,4420.128418,4470.384766,4407.820313,4354.615234,4419.743652,4140.769043,4420.769043
1698668232.699388,0.0,4311.666504,4385.0,4292.692383,4354.358887,4399.615234,4404.102539,4421.538574,4468.205078,4412.05127,4360.769043,4420.769043,4189.615234,4419.102539
1698668232.707196,0.0,4312.179688,4386.025879,4289.230957,4352.563965,4401.538574,4409.871582,4422.94873,4469.358887,4411.794922,4359.615234,4416.025879,4217.692383,4415.256348
1698668232.715005,0.0,4322.436035,4381.025879,4295.641113,4353.205078,4402.307617,4408.077148,4418.846191,4477.307617,4408.077148,4356.922852,4418.589844,4197.563965,4417.820313
1698668232.722813,0.0,4310.0,4389.230957,4288.846191,4353.974121,4397.94873,4404.871582,4421.666504,4471.922852,4412.307617,4359.230957,4420.897461,4167.563965,4423.333496
1698668232.730621,0.0,4301.922852,4389.615234,4282.692383,4353.846191,4395.256348,4405.0,4426.794922,4455.384766,4408.974121,4356.282227,4420.0,4157.179688,4418.589844
1698668232.738429,0.0,4311.794922,4381.153809,4294.743652,4356.025879,4399.871582,4403.333496,4422.563965,4456.538574,4408.589844,4357.436035,4421.538574,4185.0,4416.666504
1698668232.746237,0.0,4312.436035,4387.179688,4290.512695,4353.205078,4401.410156,4405.256348,4424.743652,4465.256348,4411.538574,4355.128418,4418.077148,4204.743652,4417.94873
1698668232.754046,0.0,4314.615234,4385.256348,4285.512695,4353.333496,4395.897461,4405.512695,4425.641113,4463.717773,4407.692383,4353.077148,4421.282227,4208.077148,4419.102539
1698668232.761854,0.0,4314.102539,4379.743652,4282.179688,4355.384766,4396.410156,4407.307617,4421.282227,4462.05127,4406.153809,4359.871582,4422.436035,4182.307617,4425.128418
1698668232.769662,0.0,4315.384766,4383.461426,4283.846191,4352.692383,4400.897461,4408.974121,4419.871582,4463.974121,4406.153809,4359.230957,4416.282227,4142.94873,4422.307617
1698668232.77747,0.0,4315.897461,4384.615234,4294.102539,4355.512695,4400.897461,4406.025879,4422.436035,4462.436035,4411.282227,4360.256348,4418.589844,4170.897461,4416.666504
1698668232.785279,0.0,4309.487305,4384.615234,4285.128418,4355.641113,4400.641113,4407.436035,4427.94873,4465.256348,4412.692383,4360.256348,4417.820313,4214.358887,4417.820313
1698668232.793087,0.0,4311.922852,4381.282227,4282.563965,4354.358887,4401.025879,4404.871582,4424.358887,4468.333496,4407.436035,4354.743652,4418.846191,4222.563965,4418.974121
1698668232.800895,0.0,4308.333496,4383.205078,4288.846191,4353.461426,4399.615234,4403.077148,4419.102539,4460.512695,4411.025879,4358.846191,4418.461426,4186.538574,4417.820313
1698668232.808703,0.0,4304.743652,4388.717773,4290.512695,4353.461426,4398.461426,4406.410156,4423.846191,4457.436035,4412.05127,4359.487305,4412.820313,4136.538574,4415.384766
1698668232.816512,0.0,4307.820313,4388.333496,4293.333496,4357.05127,4399.743652,4406.410156,4426.025879,4462.692383,4410.897461,4357.94873,4418.205078,4165.769043,4417.179688
1698668232.82432,0.0,4303.717773,4392.179688,4281.794922,4352.307617,4400.512695,4407.307617,4426.025879,4461.282227,4411.410156,4358.974121,4419.230957,4215.769043,4420.384766
1698668232.832128,0.0,4311.153809,4387.436035,4287.692383,4351.282227,4398.333496,4405.128418,4423.461426,4459.102539,4406.922852,4357.179688,4419.230957,4223.974121,4419.102539
1698668232.839936,0.0,4314.743652,4383.461426,4298.974121,4354.743652,4396.282227,4405.128418,4420.897461,4463.461426,4411.025879,4359.615234,4420.128418,4187.563965,4418.333496
1698668232.847744,0.0,4312.179688,4388.461426,4284.743652,4348.333496,4397.436035,4409.102539,4424.743652,4469.743652,4414.230957,4356.794922,4413.974121,4136.025879,4416.538574
1698668232.855553,0.0,4320.512695,4382.820313,4279.615234,4348.461426,4399.358887,4404.871582,4423.205078,4474.743652,4411.025879,4356.410156,4417.563965,4164.230957,4414.102539
1698668232.863361,0.0,4318.205078,4382.820313,4279.615234,4354.743652,4400.256348,4404.102539,4420.897461,4469.615234,4411.153809,4359.743652,4417.05127,4213.461426,4417.820313
1698668232.871169,0.0,4313.846191,4386.410156,4284.743652,4355.128418,4397.94873,4405.641113,4422.436035,4457.563965,4409.615234,4357.307617,4416.025879,4218.461426,4422.05127
1698668232.878977,0.0,4315.0,4386.153809,4292.692383,4353.846191,4396.025879,4404.487305,4421.282227,4460.641113,4412.692383,4361.538574,4421.666504,4197.05127,4420.897461
1698668232.886785,0.0,4314.102539,4386.282227,4286.794922,4352.307617,4400.769043,4408.077148,4422.820313,4472.307617,4413.205078,4361.922852,4415.256348,4154.487305,4418.333496
1698668232.894594,0.0,4317.94873,4382.05127,4293.589844,4353.205078,4400.769043,4408.077148,4421.666504,4469.487305,4410.384766,4358.077148,4413.205078,4157.692383,4418.333496
1698668232.902402,0.0,4313.333496,4386.794922,4297.820313,4353.205078,4396.025879,4408.077148,4421.666504,4462.179688,4414.230957,4362.307617,4412.692383,4195.256348,4416.666504
1698668232.91021,0.0,4311.794922,4387.436035,4292.436035,4352.820313,4396.538574,4406.282227,4423.333496,4465.384766,4411.153809,4360.384766,4410.897461,4218.461426,4415.897461
1698668232.918018,0.0,4313.589844,4379.615234,4286.410156,4357.307617,4396.794922,4401.025879,4419.487305,4469.487305,4411.922852,4359.230957,4417.692383,4207.563965,4418.846191
1698668232.925826,0.0,4314.358887,4380.0,4273.974121,4354.487305,4397.692383,4405.897461,4421.794922,4469.487305,4413.846191,4360.256348,4415.256348,4155.128418,4415.897461
1698668232.933635,0.0,4323.461426,4379.102539,4284.102539,4352.436035,4401.282227,4408.077148,4422.820313,4466.025879,4407.563965,4359.487305,4415.641113,4151.922852,4414.230957
1698668232.941443,0.0,4317.563965,4382.692383,4289.102539,4354.487305,4401.666504,4406.025879,4421.153809,4464.871582,4409.358887,4362.179688,4416.666504,4196.025879,4417.692383
1698668232.949251,0.0,4312.820313,4382.307617,4278.974121,4351.153809,4397.692383,4405.641113,4422.692383,4470.128418,4411.538574,4359.615234,4412.692383,4207.94873,4416.538574
1698668232.95706,0.0,4318.077148,4379.743652,4288.333496,4353.589844,4396.538574,4402.563965,4421.282227,4469.615234,4411.794922,4361.282227,4416.282227,4196.794922,4417.692383
1698668232.964868,0.0,4310.769043,4389.487305,4288.974121,4353.461426,4398.589844,4404.358887,4423.846191,4465.641113,4410.897461,4362.820313,4412.94873,4165.256348,4419.615234
1698668232.972676,0.0,4314.615234,4384.743652,4286.410156,4350.641113,4398.333496,4406.025879,4423.589844,4468.974121,4408.717773,4358.589844,4413.205078,4165.128418,4417.563965
1698668232.980484,0.0,4320.256348,4379.230957,4292.436035,4353.589844,4397.94873,4408.333496,4421.538574,4466.025879,4414.102539,4361.538574,4414.358887,4190.128418,4420.897461
1698668232.988292,0.0,4314.871582,4387.307617,4297.563965,4352.94873,4398.589844,4409.871582,4424.230957,4457.94873,4412.692383,4361.794922,4407.820313,4191.025879,4419.102539
1698668232.996101,0.0,4309.102539,4382.820313,4300.0,4352.307617,4399.230957,4402.179688,4422.692383,4460.512695,4410.641113,4363.717773,4412.820313,4200.128418,4414.230957
1698668233.003909,0.0,4304.230957,4381.282227,4286.153809,4349.871582,4400.512695,4404.358887,4422.307617,4462.820313,4413.077148,4364.871582,4415.0,4186.538574,4415.256348
1698668233.011717,0.0,4314.615234,4381.794922,4281.282227,4349.102539,4398.846191,4408.333496,4423.205078,4462.820313,4409.102539,4359.743652,4413.974121,4168.461426,4415.769043
1698668233.019525,0.0,4317.179688,4378.333496,4288.333496,4352.692383,4399.230957,4403.974121,4420.128418,4464.358887,4412.820313,4363.333496,4417.179688,4191.410156,4417.820313
1698668233.027333,0.0,4309.871582,4383.333496,4290.512695,4352.94873,4401.922852,4403.589844,4421.025879,4461.153809,4417.05127,4364.615234,4412.563965,4195.769043,4418.589844
1698668233.035142,0.0,4319.358887,4381.922852,4294.487305,4353.974121,4397.307617,4403.717773,4422.436035,4461.410156,4413.846191,4361.153809,4411.666504,4190.256348,4414.487305
1698668233.04295,0.0,4321.282227,4380.128418,4282.307617,4353.077148,4395.0,4405.897461,4424.102539,4464.230957,4411.922852,4359.487305,4412.820313,4179.102539,4414.102539
1698668233.050758,0.0,4317.94873,4381.282227,4280.0,4352.05127,4398.589844,4404.102539,4423.077148,4461.922852,4410.769043,4358.589844,4413.333496,4167.307617,4416.282227
1698668233.058566,0.0,4318.846191,4379.487305,4290.128418,4354.102539,4396.922852,4401.282227,4419.743652,4462.820313,4415.384766,4362.820313,4413.461426,4182.179688,4416.666504
1698668233.066374,0.0,4318.333496,4383.333496,4286.282227,4352.820313,4395.512695,4407.436035,4424.358887,4466.538574,4413.717773,4360.128418,4406.666504,4185.128418,4416.794922
1698668233.074183,0.0,4321.025879,4382.179688,4295.769043,4353.333496,4400.256348,4407.436035,4422.436035,4462.307617,4407.820313,4358.205078,4410.256348,4188.077148,4417.05127
1698668233.081991,0.0,4311.794922,4383.589844,4294.230957,4352.307617,4400.897461,4404.230957,4420.0,4458.846191,4411.025879,4363.589844,4413.717773,4184.487305,4415.769043
1698668233.089799,0.0,4306.794922,4384.871582,4281.794922,4351.282227,4396.538574,4403.717773,4424.358887,4465.256348,4410.512695,4360.256348,4411.025879,4169.615234,4415.128418
1698668233.097607,0.0,4315.769043,4383.333496,4290.897461,4356.538574,4399.102539,4402.94873,4421.538574,4471.666504,4411.153809,4362.94873,4415.512695,4186.666504,4417.179688
1698668233.105415,0.0,4314.230957,4390.641113,4293.461426,4354.102539,4402.692383,4407.05127,4422.436035,4469.743652,4413.205078,4365.0,4412.307617,4192.692383,4417.307617
1698668233.113224,0.0,4312.179688,4384.487305,4293.589844,4351.666504,4396.794922,4406.025879,4422.563965,4464.743652,4410.512695,4359.615234,4412.05127,4190.384766,4416.538574
1698668233.121032,0.0,4311.153809,4380.641113,4289.743652,4353.589844,4394.743652,4402.307617,4420.769043,4462.692383,4413.333496,4362.692383,4415.769043,4183.717773,4419.230957
1698668233.12884,0.0,4315.897461,4382.94873,4284.871582,4351.538574,4401.538574,4404.102539,4423.333496,4462.94873,4413.077148,4363.205078,4412.307617,4166.153809,4418.205078
1698668233.136649,0.0,4323.589844,4375.769043,4291.538574,4354.102539,4401.025879,4402.563965,4420.769043,4466.025879,4410.256348,4360.641113,4413.333496,4182.436035,4417.563965
1698668233.144457,0.0,4316.025879,4381.410156,4282.94873,4353.974121,4397.692383,4406.025879,4420.769043,4466.153809,4411.282227,4359.102539,4410.769043,4189.487305,4419.487305
1698668233.152265,0.0,4319.102539,4383.974121,4282.05127,4352.05127,4400.0,4407.436035,4425.769043,4462.820313,4411.282227,4358.974121,4414.102539,4175.897461,4418.205078
1698668233.160073,0.0,4323.589844,4380.512695,4294.743652,4355.0,4400.384766,4404.871582,4424.615234,4468.461426,4415.641113,4362.179688,4416.666504,4180.256348,4417.94873
1698668233.167881,0.0,4318.333496,4383.205078,4292.94873,4352.179688,4399.487305,4407.94873,4422.563965,4471.410156,4414.230957,4359.871582,4408.717773,4185.641113,4419.615234
1698668233.17569,0.0,4319.358887,4382.436035,4294.743652,4351.153809,4397.820313,4405.769043,4423.333496,4460.256348,4411.922852,4361.282227,4413.333496,4191.666504,4418.461426
1698668233.183498,0.0,4316.666504,4385.256348,4292.94873,4352.179688,4397.436035,4406.153809,4425.384766,4453.333496,4413.205078,4363.461426,4413.717773,4178.333496,4414.487305
1698668233.191306,0.0,4321.282227,4382.692383,4291.410156,4351.922852,4399.358887,4407.436035,4422.94873,4460.769043,4408.974121,4359.102539,4410.512695,4160.384766,4416.410156
1698668233.199114,0.0,4319.615234,4380.384766,4291.025879,4353.974121,4399.102539,4404.615234,4420.769043,4463.846191,4412.436035,4360.769043,4415.384766,4177.563965,4421.538574
1698668233.206922,0.0,4308.846191,4386.025879,4286.153809,4352.436035,4397.179688,4404.871582,4424.487305,4455.384766,4412.94873,4360.256348,4412.436035,4201.666504,4415.512695
1698668233.214731,0.0,4314.102539,4380.769043,4294.358887,4353.846191,4396.794922,4403.589844,4420.512695,4455.0,4408.077148,4358.846191,4411.666504,4214.871582,4413.974121
1698668233.222539,0.0,4315.769043,4379.358887,4289.871582,4353.077148,4399.743652,4406.410156,4418.077148,4463.205078,4412.307617,4362.05127,4410.769043,4174.743652,4422.179688
1698668233.230347,0.0,4310.897461,4386.153809,4288.461426,4349.871582,4400.769043,4404.871582,4422.307617,4461.794922,4411.282227,4360.0,4411.922852,4123.717773,4419.615234
1698668233.238155,0.0,4308.974121,4387.05127,4302.307617,4354.487305,4398.333496,4400.128418,4421.794922,4453.589844,4411.025879,4360.769043,4417.05127,4171.538574,4417.94873
1698668233.245963,0.0,4317.436035,4384.358887,4294.230957,4354.358887,4398.589844,4407.179688,4422.307617,4461.666504,4414.358887,4360.897461,4409.743652,4234.615234,4422.307617
1698668233.253772,0.0,4325.641113,4375.128418,4292.436035,4352.94873,4400.512695,4408.333496,4420.128418,4474.358887,4411.794922,4359.871582,4409.871582,4241.538574,4418.717773
1698668233.26158,0.0,4306.282227,4381.794922,4295.256348,4353.333496,4400.128418,4405.256348,4420.512695,4465.256348,4411.922852,4361.410156,4415.384766,4174.358887,4416.666504
1698668233.269388,0.0,4304.358887,4391.025879,4293.205078,4351.794922,4398.846191,4406.666504,4424.871582,4459.487305,4411.025879,4358.974121,4411.282227,4098.461426,4418.205078
1698668233.277196,0.0,4326.666504,4379.487305,4301.922852,4353.846191,4397.820313,4406.538574,4420.641113,4466.922852,4411.282227,4361.794922,4408.974121,4154.102539,4417.179688
1698668233.285005,0.0,4324.102539,4377.05127,4294.230957,4352.820313,4396.794922,4409.487305,4420.384766,4468.461426,4413.205078,4361.666504,4405.0,4242.436035,4417.820313
1698668233.292813,0.0,4318.461426,4377.692383,4283.717773,4352.179688,4395.384766,4409.358887,4421.794922,4468.077148,4410.769043,4357.307617,4410.512695,4244.358887,4420.512695
1698668233.300621,0.0,4318.461426,4379.358887,4287.307617,4353.461426,4396.153809,4408.846191,4420.897461,4464.871582,4412.563965,4361.282227,4414.615234,4177.692383,4420.512695
1698668233.308429,0.0,4316.410156,4386.153809,4294.230957,4350.512695,4397.692383,4409.358887,4424.615234,4458.077148,4413.589844,4361.666504,4407.436035,4112.692383,4419.230957
1698668233.316238,0.0,4317.94873,4385.512695,4300.769043,4353.461426,4399.487305,4405.128418,4425.384766,4452.179688,4412.307617,4361.153809,4411.025879,4154.102539,4418.077148
1698668233.324046,0.0,4314.358887,4389.358887,4291.025879,4355.128418,4402.563965,4407.307617,4426.153809,4451.794922,4409.615234,4361.153809,4413.333496,4220.641113,4416.794922
1698668233.331854,0.0,4319.615234,4384.102539,4289.230957,4353.461426,4400.256348,4409.230957,4423.333496,4460.128418,4407.179688,4358.205078,4415.0,4237.692383,4416.794922
1698668233.339662,0.0,4324.230957,4379.615234,4292.307617,4355.256348,4395.256348,4406.794922,4419.358887,4467.563965,4415.0,4363.077148,4416.153809,4190.384766,4420.641113
1698668233.34747,0.0,4321.153809,4383.205078,4280.641113,4352.05127,4395.512695,4408.846191,4421.025879,4467.05127,4415.384766,4362.94873,4410.0,4114.230957,4421.794922
1698668233.355279,0.0,4323.589844,4379.230957,4283.846191,4351.153809,4395.128418,4405.0,4418.846191,4464.871582,4409.615234,4358.461426,4414.615234,4143.077148,4420.641113
1698668233.363087,0.0,4315.384766,4381.153809,4288.589844,4353.077148,4396.794922,4404.487305,4419.102539,4462.692383,4412.179688,4358.333496,4416.153809,4215.256348,4421.666504
1698668233.370895,0.0,4312.820313,4379.871582,4292.94873,4353.077148,4398.589844,4407.563965,4421.794922,4463.077148,4412.05127,4358.717773,4411.794922,4212.820313,4421.794922
1698668233.378703,0.0,4318.077148,4377.436035,4297.563965,4354.871582,4396.666504,4405.256348,4420.897461,4466.666504,4414.743652,4361.922852,4412.05127,4181.794922,4422.94873
1698668233.386511,0.0,4313.077148,4384.230957,4285.897461,4352.94873,4397.94873,4406.666504,4424.743652,4466.538574,4413.589844,4359.615234,4411.282227,4168.974121,4420.384766
1698668233.39432,0.0,4312.563965,4382.563965,4288.974121,4353.205078,4400.384766,4403.717773,4428.974121,4462.94873,4407.692383,4358.717773,4416.282227,4188.461426,4416.538574
1698668233.402128,0.0,4310.641113,4382.692383,4291.666504,4354.358887,4397.820313,4403.077148,4428.205078,4459.743652,4410.897461,4363.717773,4413.974121,4182.179688,4418.333496
1698668233.409936,0.0,4313.461426,4382.436035,4288.974121,4354.230957,4395.384766,4405.641113,4421.922852,4460.0,4412.436035,4361.538574,4407.820313,4167.820313,4419.615234
1698668233.417744,0.0,4317.94873,4376.666504,4294.102539,4356.025879,4396.538574,4403.589844,4416.922852,4462.820313,4414.487305,4361.794922,4413.846191,4190.384766,4422.820313
1698668233.425552,0.0,4312.820313,4383.077148,4287.05127,4351.282227,4397.179688,4408.077148,4421.794922,4460.641113,4413.974121,4362.179688,4411.538574,4190.897461,4423.589844
1698668233.433361,0.0,4315.256348,4384.743652,4291.282227,4350.769043,4395.512695,4406.794922,4421.666504,4458.846191,4410.897461,4360.256348,4411.666504,4187.05127,4417.307617
1698668233.441169,0.0,4313.589844,4380.0,4294.487305,4355.256348,4396.538574,4402.692383,4420.128418,4465.641113,4415.128418,4361.538574,4415.641113,4186.153809,4417.05127
1698668233.448977,0.0,4318.077148,4381.410156,4288.077148,4353.461426,4399.615234,4407.436035,4425.769043,4471.410156,4412.94873,4358.717773,4410.641113,4170.0,4421.153809
1698668233.456785,0.0,4326.794922,4380.128418,4294.871582,4353.205078,4399.615234,4408.717773,4422.820313,4465.128418,4411.410156,4358.333496,4412.179688,4188.717773,4422.820313
1698668233.464594,0.0,4315.128418,4385.769043,4290.384766,4352.179688,4399.230957,4407.179688,4421.153809,4458.461426,4415.128418,4358.461426,4413.077148,4188.077148,4421.282227
1698668233.472402,0.0,4313.717773,4382.307617,4287.94873,4352.436035,4399.230957,4405.641113,4424.102539,4459.230957,4412.563965,4357.436035,4414.230957,4171.794922,4418.846191
1698668233.48021,0.0,4320.256348,4376.410156,4291.794922,4355.128418,4396.153809,4405.384766,4422.563965,4456.153809,4410.897461,4360.128418,4413.717773,4186.282227,4420.512695
1698668233.488018,0.0,4313.205078,4386.025879,4289.487305,4351.922852,4393.974121,4405.384766,4422.563965,4451.153809,4409.358887,4358.717773,4410.0,4187.307617,4421.282227
1698668233.495827,0.0,4308.589844,4384.230957,4298.077148,4351.153809,4397.05127,4402.692383,4420.512695,4453.333496,4410.641113,4362.179688,4417.692383,4184.102539,4421.666504
1698668233.503635,0.0,4312.692383,4379.102539,4297.307617,4351.922852,4400.128418,4407.179688,4421.282227,4461.666504,4414.615234,4363.846191,4414.230957,4186.410156,4424.743652
1698668233.511443,0.0,4323.717773,4375.897461,4289.871582,4352.563965,4398.077148,4407.05127,4421.538574,4467.307617,4411.794922,4356.153809,4406.153809,4190.769043,4423.461426
1698668233.519251,0.0,4320.512695,4377.692383,4289.230957,4353.717773,4395.128418,4403.846191,4418.717773,4466.025879,4410.897461,4358.846191,4411.153809,4192.820313,4421.282227
1698668233.527059,0.0,4315.769043,4384.743652,4292.436035,4350.384766,4395.512695,4408.077148,4422.436035,4464.230957,4410.897461,4360.897461,4411.025879,4176.922852,4422.179688
1698668233.534868,0.0,4325.897461,4377.436035,4301.666504,4352.692383,4396.922852,4404.743652,4421.282227,4465.384766,4408.205078,4357.05127,4411.922852,4180.0,4420.897461
1698668233.542676,0.0,4319.358887,4378.717773,4292.563965,4355.256348,4400.641113,4402.94873,4420.897461,4464.871582,4410.512695,4358.589844,4413.205078,4181.153809,4420.512695
1698668233.550484,0.0,4313.846191,4385.897461,4290.384766,4352.820313,4402.94873,4407.436035,4425.0,4460.256348,4411.282227,4360.897461,4411.794922,4177.307617,4421.410156
1698668233.558292,0.0,4319.871582,4381.153809,4302.563965,4354.102539,4396.922852,4406.922852,4420.384766,4456.025879,4413.205078,4362.563965,4414.615234,4194.487305,4421.538574
1698668233.5661,0.0,4318.077148,4376.922852,4293.846191,4351.538574,4392.820313,4405.256348,4417.436035,4457.820313,4413.333496,4358.846191,4412.436035,4179.487305,4421.538574
1698668233.573909,0.0,4320.384766,4375.128418,4290.384766,4351.922852,4396.666504,4400.128418,4420.897461,4463.461426,4410.0,4358.461426,4413.589844,4168.589844,4419.487305
1698668233.581717,0.0,4320.256348,4378.717773,4288.333496,4355.512695,4399.487305,4402.563965,4423.589844,4468.846191,4413.461426,4362.563965,4412.436035,4190.769043,4421.666504
1698668233.589525,0.0,4319.743652,4377.436035,4283.846191,4352.563965,4396.794922,4406.538574,4421.025879,4468.333496,4412.94873,4357.820313,4410.128418,4205.897461,4424.871582
1698668233.597333,0.0,4315.128418,4376.153809,4294.615234,4352.692383,4395.769043,4399.615234,4416.025879,4460.641113,4414.743652,4360.0,4416.282227,4203.589844,4423.205078
1698668233.605142,0.0,4306.922852,4384.615234,4291.666504,4352.05127,4400.256348,4401.410156,4421.538574,4456.794922,4417.436035,4361.794922,4411.025879,4164.615234,4420.384766
1698668233.61295,0.0,4320.384766,4382.820313,4293.461426,4353.205078,4400.897461,4406.410156,4424.615234,4460.641113,4411.153809,4356.538574,4409.230957,4145.256348,4417.563965
1698668233.620758,0.0,4325.512695,4381.282227,4301.538574,4354.358887,4398.333496,4406.538574,4421.410156,4460.384766,4412.692383,4359.743652,4413.333496,4178.974121,4418.077148
1698668233.628566,0.0,4321.282227,4379.615234,4292.692383,4350.0,4400.384766,4404.487305,4421.153809,4460.256348,4415.128418,4361.922852,4412.05127,4213.846191,4420.0
1698668233.636374,0.0,4328.717773,4370.512695,4291.025879,4352.820313,4401.282227,4398.717773,4418.589844,4464.487305,4415.384766,4362.563965,4416.025879,4217.179688,4425.769043
1698668233.644183,0.0,4325.0,4376.794922,4291.153809,4355.512695,4399.102539,4403.205078,4420.384766,4462.179688,4416.666504,4361.666504,4410.897461,4161.153809,4426.794922
1698668233.651991,0.0,4322.563965,4380.0,4294.743652,4353.589844,4397.307617,4406.794922,4422.436035,4457.307617,4412.820313,4357.692383,4408.205078,4131.410156,4421.282227
1698668233.659799,0.0,4322.179688,4377.692383,4291.538574,4355.769043,4398.205078,4403.077148,4419.230957,4459.358887,4414.102539,4360.641113,4415.512695,4184.871582,4423.461426
1698668233.667607,0.0,4315.384766,4385.0,4281.282227,4355.384766,4398.974121,4404.871582,4422.05127,4460.641113,4414.230957,4361.025879,4412.179688,4224.743652,4424.230957
1698668233.675416,0.0,4311.794922,4378.974121,4292.05127,4354.230957,4398.077148,4402.436035,4422.820313,4458.461426,4413.333496,4360.384766,4411.922852,4218.974121,4420.769043
1698668233.683224,0.0,4312.05127,4374.615234,4294.230957,4352.94873,4399.871582,4399.358887,4419.230957,4458.974121,4415.0,4361.922852,4413.846191,4169.230957,4423.077148
1698668233.691032,0.0,4326.282227,4376.666504,4291.025879,4353.077148,4400.384766,4401.538574,4419.102539,4461.666504,4411.410156,4358.974121,4414.102539,4127.563965,4424.102539
1698668233.69884,0.0,4327.436035,4374.743652,4296.153809,4354.615234,4398.717773,4402.436035,4421.282227,4459.743652,4415.897461,4360.256348,4414.358887,4177.307617,4421.794922
1698668233.706648,0.0,4316.794922,4378.589844,4291.282227,4352.436035,4398.846191,4402.94873,4423.589844,4457.436035,4417.94873,4358.461426,4408.461426,4236.538574,4420.897461
1698668233.714457,0.0,4326.666504,4377.307617,4294.230957,4353.589844,4398.077148,4401.794922,4419.871582,4463.205078,4409.743652,4357.436035,4412.563965,4231.538574,4422.94873
1698668233.722265,0.0,4328.846191,4380.128418,4295.897461,4353.205078,4399.102539,4404.615234,4422.692383,4463.974121,4411.410156,4362.692383,4415.256348,4162.179688,4424.230957
1698668233.730073,0.0,4323.717773,4381.922852,4295.641113,4351.025879,4400.641113,4406.794922,4425.0,4458.461426,4413.589844,4361.025879,4410.256348,4113.974121,4421.282227
1698668233.737881,0.0,4326.153809,4373.974121,4293.333496,4353.974121,4398.974121,4405.256348,4415.641113,4460.769043,4414.615234,4361.538574,4414.871582,4171.538574,4420.641113
1698668233.74569,0.0,4320.256348,4377.05127,4279.230957,4351.282227,4398.589844,4406.410156,4419.102539,4463.589844,4416.025879,4360.641113,4416.666504,4227.307617,4423.461426
1698668233.753498,0.0,4317.307617,4376.538574,4292.307617,4350.641113,4400.256348,4403.077148,4424.358887,4459.102539,4411.025879,4357.94873,4417.179688,4219.487305,4422.179688
1698668233.761306,0.0,4316.153809,4376.025879,4304.871582,4353.333496,4398.589844,4403.846191,4418.589844,4457.179688,4412.05127,4362.692383,4416.666504,4183.205078,4421.282227
1698668233.769114,0.0,4315.512695,4381.538574,4291.922852,4352.307617,4397.94873,4408.717773,4420.512695,4459.230957,4414.487305,4360.256348,4413.717773,4144.615234,4423.077148
1698668233.776922,0.0,4319.487305,4378.717773,4291.025879,4355.512695,4400.256348,4402.692383,4422.563965,4462.307617,4413.205078,4359.230957,4416.025879,4168.846191,4423.333496
1698668233.784731,0.0,4316.922852,4374.743652,4289.871582,4354.358887,4398.974121,4400.0,4418.717773,4465.128418,4410.897461,4362.820313,4412.179688,4206.153809,4423.205078
1698668233.792539,0.0,4319.743652,4373.205078,4291.794922,4351.025879,4395.641113,4402.820313,4417.820313,4462.436035,4411.538574,4361.538574,4412.436035,4217.436035,4424.871582
1698668233.800347,0.0,4323.077148,4376.922852,4296.282227,4355.256348,4396.538574,4402.820313,4420.769043,4461.794922,4418.077148,4362.692383,4411.538574,4189.871582,4426.410156
1698668233.808155,0.0,4317.436035,4382.563965,4294.230957,4356.922852,4398.589844,4402.94873,4421.538574,4463.077148,4415.897461,4362.05127,4404.230957,4132.820313,4426.025879
1698668233.815963,0.0,4312.563965,4383.461426,4300.128418,4356.282227,4395.769043,4400.512695,4418.974121,4456.025879,4416.153809,4360.641113,4413.077148,4152.05127,4426.282227
1698668233.823772,0.0,4308.974121,4385.256348,4293.846191,4353.333496,4394.487305,4402.563965,4421.410156,4454.102539,4420.0,4360.897461,4416.538574,4219.871582,4423.846191
1698668233.83158,0.0,4318.205078,4380.256348,4290.0,4351.538574,4398.077148,4404.358887,4422.179688,4463.717773,4415.128418,4360.512695,4412.05127,4252.436035,4423.077148
1698668233.839388,0.0,4322.307617,4380.897461,4298.333496,4355.256348,4400.0,4403.333496,4421.153809,4463.077148,4415.897461,4363.846191,4413.846191,4199.230957,4425.256348
1698668233.847196,0.0,4314.230957,4386.666504,4291.794922,4354.230957,4397.820313,4404.230957,4426.922852,4453.846191,4415.384766,4360.512695,4411.153809,4106.282227,4422.820313
1698668233.855005,0.0,4317.94873,4378.205078,4289.358887,4354.102539,4396.922852,4401.538574,4423.333496,4460.641113,4411.025879,4359.358887,4412.94873,4129.871582,4422.05127
1698668233.862813,0.0,4322.307617,4374.871582,4291.153809,4354.743652,4401.153809,4404.871582,4416.666504,4466.922852,4414.358887,4365.384766,4410.0,4226.666504,4423.205078
1698668233.870621,0.0,4327.307617,4378.205078,4292.05127,4353.974121,4401.025879,4405.256348,4418.461426,4460.384766,4415.256348,4363.846191,4407.179688,4262.692383,4423.077148
1698668233.878429,0.0,4326.410156,4379.487305,4293.333496,4356.794922,4397.05127,4398.974121,4419.358887,4461.666504,4413.717773,4362.05127,4415.0,4211.794922,4427.179688
1698668233.886238,0.0,4316.538574,4384.487305,4289.358887,4353.846191,4400.384766,4401.153809,4420.769043,4464.487305,4412.94873,4360.512695,4412.307617,4126.025879,4427.05127
1698668233.894046,0.0,4319.743652,4380.769043,4298.717773,4352.05127,4400.769043,4400.769043,4419.743652,4456.666504,4412.94873,4360.897461,4409.615234,4129.615234,4420.897461
1698668233.901854,0.0,4321.666504,4379.743652,4297.94873,4354.102539,4397.05127,4401.666504,4419.102539,4458.717773,4416.282227,4363.974121,4410.641113,4210.897461,4422.820313
1698668233.909662,0.0,4324.487305,4378.589844,4291.538574,4353.589844,4398.589844,4405.897461,4419.615234,4471.025879,4414.615234,4361.282227,4409.487305,4252.307617,4428.846191
1698668233.91747,0.0,4324.358887,4370.641113,4303.205078,4354.743652,4398.205078,4403.717773,4416.922852,4466.538574,4415.256348,4363.205078,4414.487305,4209.358887,4427.05127
1698668233.925279,0.0,4316.282227,4379.615234,4300.128418,4352.563965,4396.666504,4403.974121,4418.333496,4455.256348,4417.692383,4363.461426,4415.512695,4133.461426,4422.563965
1698668233.933087,0.0,4327.820313,4382.94873,4295.384766,4351.538574,4397.05127,4403.077148,4419.230957,4458.589844,4413.846191,4361.794922,4416.794922,4137.563965,4423.077148
1698668233.940895,0.0,4332.307617,4376.153809,4293.974121,4355.0,4395.0,4404.230957,4419.615234,4464.871582,4415.897461,4365.897461,4415.384766,4202.307617,4426.153809
1698668233.948703,0.0,4324.358887,4378.846191,4290.0,4354.871582,4396.025879,4407.820313,4424.358887,4463.974121,4415.769043,4363.846191,4412.820313,4226.282227,4425.512695
1698668233.956511,0.0,4325.384766,4382.05127,4300.0,4355.0,4397.820313,4403.333496,4421.025879,4456.410156,4414.487305,4363.461426,4418.974121,4205.769043,4420.641113
1698668233.96432,0.0,4322.307617,4387.692383,4296.922852,4355.0,4395.512695,4404.358887,4417.820313,4452.05127,4417.05127,4365.384766,4414.871582,4160.128418,4418.333496
1698668233.972128,0.0,4323.974121,4380.897461,4292.692383,4355.256348,4395.0,4405.641113,4419.102539,4460.128418,4414.102539,4361.794922,4411.025879,4138.589844,4420.128418
1698668233.979936,0.0,4323.333496,4375.256348,4296.666504,4355.512695,4397.307617,4402.563965,4418.461426,4463.974121,4416.282227,4364.743652,4414.358887,4184.230957,4425.128418
1698668233.987744,0.0,4319.102539,4379.743652,4292.692383,4352.94873,4397.692383,4404.230957,4419.358887,4459.615234,4417.563965,4365.128418,4413.461426,4233.717773,4425.384766
1698668233.995552,0.0,4325.128418,4373.077148,4293.077148,4355.641113,4395.128418,4400.384766,4416.666504,4457.94873,4413.846191,4363.461426,4418.974121,4236.410156,4420.769043
1698668234.003361,0.0,4319.358887,4377.692383,4286.666504,4355.0,4395.0,4400.0,4420.384766,4456.794922,4413.717773,4365.384766,4418.461426,4165.0,4423.077148
1698668234.011169,0.0,4317.05127,4383.717773,4287.94873,4353.205078,4397.307617,4403.333496,4424.487305,4455.769043,4411.922852,4363.974121,4415.0,4115.512695,4425.128418
1698668234.018977,0.0,4327.179688,4377.436035,4297.692383,4358.589844,4400.0,4403.846191,4417.05127,4462.05127,4415.641113,4367.692383,4417.179688,4183.461426,4422.436035
1698668234.026785,0.0,4326.538574,4378.205078,4294.871582,4356.153809,4400.769043,4406.538574,4417.820313,4465.0,4416.666504,4367.05127,4409.358887,4245.128418,4422.692383
1698668234.034594,0.0,4325.384766,4378.846191,4301.025879,4355.384766,4398.717773,4403.846191,4423.717773,4458.205078,4411.025879,4360.769043,4409.358887,4235.256348,4423.333496
1698668234.042402,0.0,4321.666504,4379.487305,4302.692383,4358.205078,4399.230957,4405.0,4423.077148,4458.974121,4411.794922,4362.307617,4412.436035,4173.461426,4421.282227
1698668234.05021,0.0,4322.563965,4380.256348,4300.512695,4355.0,4400.0,4408.205078,4416.794922,4467.307617,4413.717773,4364.871582,4411.025879,4116.153809,4419.487305
1698668234.058018,0.0,4326.410156,4379.615234,4303.077148,4354.358887,4400.0,4403.717773,4413.333496,4466.282227,4417.179688,4368.461426,4416.153809,4162.692383,4423.333496
1698668234.065827,0.0,4320.0,4382.05127,4292.179688,4352.05127,4400.128418,4405.0,4419.358887,4459.102539,4418.589844,4365.897461,4413.717773,4236.666504,4423.846191
1698668234.073635,0.0,4325.256348,4377.436035,4296.153809,4352.94873,4396.410156,4404.871582,4419.230957,4457.563965,4416.922852,4362.307617,4413.077148,4246.666504,4421.794922
1698668234.081443,0.0,4326.153809,4376.666504,4298.333496,4356.410156,4396.410156,4402.692383,4416.666504,4455.384766,4418.846191,4365.512695,4416.410156,4187.436035,4425.0
1698668234.089251,0.0,4320.128418,4378.461426,4288.717773,4353.589844,4399.743652,4405.0,4420.769043,4453.461426,4415.128418,4363.846191,4414.102539,4124.871582,4426.410156
1698668234.097059,0.0,4324.871582,4376.025879,4297.94873,4353.333496,4396.794922,4404.358887,4421.153809,4461.538574,4412.820313,4365.0,4413.589844,4163.974121,4424.487305
1698668234.104868,0.0,4327.692383,4381.794922,4294.487305,4354.358887,4394.615234,4406.153809,4418.717773,4465.384766,4416.153809,4365.256348,4411.794922,4232.820313,4421.025879
1698668234.112676,0.0,4327.94873,4378.717773,4287.820313,4355.256348,4398.333496,4406.153809,4417.563965,4460.384766,4414.102539,4360.512695,4416.282227,4239.487305,4418.974121
1698668234.120484,0.0,4323.717773,4374.487305,4292.563965,4356.153809,4398.589844,4404.358887,4418.333496,4459.230957,4414.615234,4362.436035,4418.077148,4187.179688,4423.461426
1698668234.128292,0.0,4325.641113,4381.282227,4293.846191,4354.615234,4396.282227,4405.0,4419.615234,4462.94873,4415.769043,4364.358887,4409.871582,4134.358887,4425.897461
1698668234.1361,0.0,4325.0,4380.769043,4302.820313,4355.128418,4397.692383,4403.589844,4418.333496,4466.282227,4417.563965,4365.769043,4411.025879,4163.717773,4422.563965
1698668234.143909,0.0,4311.666504,4382.307617,4300.897461,4353.846191,4397.820313,4407.692383,4421.025879,4463.461426,4418.077148,4366.025879,4411.538574,4207.563965,4419.102539
1698668234.151717,0.0,4320.256348,4378.461426,4295.384766,4354.487305,4393.461426,4407.94873,4422.436035,4458.077148,4411.538574,4363.333496,4414.230957,4221.153809,4420.384766
1698668234.159525,0.0,4327.820313,4374.102539,4296.794922,4357.05127,4392.436035,4402.436035,4419.102539,4458.717773,4414.743652,4365.897461,4418.717773,4206.538574,4427.179688
1698668234.167333,0.0,4318.205078,4385.512695,4298.589844,4353.333496,4395.769043,4403.589844,4421.282227,4462.820313,4419.230957,4365.256348,4412.307617,4159.871582,4426.153809
1698668234.175141,0.0,4320.384766,4385.0,4305.128418,4354.358887,4397.05127,4403.077148,4420.128418,4459.102539,4417.692383,4365.384766,4417.05127,4174.358887,4421.794922
1698668234.18295,0.0,4323.717773,4379.102539,4290.512695,4356.153809,4398.846191,4403.077148,4419.102539,4454.487305,4416.153809,4366.794922,4422.563965,4212.820313,4427.307617
1698668234.190758,0.0,4326.410156,4376.153809,4284.871582,4353.846191,4400.641113,4404.871582,4418.717773,4460.512695,4411.794922,4362.179688,4418.333496,4211.153809,4428.077148
1698668234.198566,0.0,4324.487305,4374.871582,4301.538574,4355.384766,4397.563965,4403.974121,4413.589844,4463.077148,4416.794922,4364.871582,4416.794922,4197.05127,4424.615234
1698668234.206375,0.0,4316.538574,4379.615234,4296.025879,4353.974121,4396.282227,4405.128418,4418.205078,4458.846191,4419.615234,4366.153809,4412.179688,4165.641113,4424.230957
1698668234.214183,0.0,4321.666504,4376.410156,4295.384766,4354.230957,4396.282227,4404.230957,4421.922852,4460.384766,4412.05127,4364.487305,4414.102539,4157.307617,4424.230957
1698668234.221991,0.0,4320.512695,4379.871582,4301.666504,4356.025879,4396.538574,4405.256348,4420.384766,4465.384766,4414.230957,4365.384766,4415.897461,4188.974121,4425.512695
1698668234.229799,0.0,4318.461426,4386.025879,4297.436035,4353.077148,4396.666504,4404.102539,4424.230957,4461.282227,4417.563965,4361.922852,4412.563965,4213.974121,4426.410156
1698668234.237607,0.0,4323.333496,4382.563965,4295.0,4355.641113,4394.615234,4399.487305,4423.974121,4453.333496,4417.307617,4365.769043,4418.461426,4206.538574,4428.077148
1698668234.245416,0.0,4317.692383,4383.589844,4289.615234,4355.128418,4396.666504,4405.641113,4422.05127,4453.589844,4415.0,4367.436035,4416.666504,4168.077148,4427.820313
1698668234.253224,0.0,4321.025879,4381.794922,4298.974121,4352.05127,4398.589844,4405.384766,4417.179688,4460.128418,4412.307617,4362.692383,4416.025879,4168.205078,4425.384766
1698668234.261032,0.0,4324.102539,4381.153809,4302.307617,4354.871582,4395.897461,4400.384766,4414.358887,4466.666504,4417.820313,4368.589844,4420.641113,4196.922852,4424.743652
1698668234.26884,0.0,4319.743652,4382.820313,4290.641113,4355.0,4395.512695,4406.025879,4419.487305,4462.692383,4416.410156,4370.256348,4416.282227,4205.769043,4423.717773
1698668234.276648,0.0,4325.384766,4379.871582,4296.666504,4353.333496,4395.897461,4405.384766,4419.230957,4453.974121,4413.717773,4366.538574,4419.615234,4207.94873,4425.384766
1698668234.284457,0.0,4324.102539,4384.358887,4298.461426,4350.641113,4395.512695,4403.333496,4419.871582,4453.846191,4417.307617,4365.641113,4419.871582,4176.922852,4427.05127
1698668234.292265,0.0,4319.615234,4382.436035,4300.384766,4352.692383,4394.487305,4402.563965,4420.384766,4460.0,4415.384766,4363.974121,4414.743652,4156.025879,4422.820313
1698668234.300073,0.0,4321.025879,4375.897461,4304.102539,4355.897461,4394.358887,4403.205078,4416.922852,4463.077148,4418.077148,4366.922852,4412.179688,4199.743652,4419.615234
1698668234.307881,0.0,4326.922852,4374.743652,4293.717773,4350.897461,4395.512695,4405.897461,4418.077148,4461.410156,4418.333496,4365.641113,4411.794922,4232.179688,4422.692383
1698668234.315689,0.0,4331.025879,4368.846191,4292.563965,4353.077148,4398.077148,4401.666504,4417.179688,4460.641113,4416.794922,4365.256348,4421.794922,4223.333496,4427.563965
1698668234.323498,0.0,4321.538574,4373.717773,4291.410156,4356.922852,4400.769043,4403.077148,4419.358887,4463.333496,4420.897461,4368.077148,4421.282227,4170.256348,4425.0
1698668234.331306,0.0,4322.05127,4380.641113,4298.846191,4352.563965,4397.94873,4405.769043,4421.025879,4465.0,4416.282227,4365.512695,4417.05127,4134.230957,4419.871582
1698668234.339114,0.0,4323.589844,4380.256348,4308.461426,4350.641113,4392.563965,4404.102539,4417.05127,4459.230957,4412.94873,4368.461426,4420.769043,4183.077148,4423.205078
1698668234.346922,0.0,4315.512695,4382.307617,4291.794922,4351.410156,4395.641113,4405.0,4419.871582,4453.589844,4414.358887,4366.666504,4418.846191,4228.589844,4423.333496
1698668234.35473,0.0,4320.897461,4378.589844,4291.538574,4354.743652,4400.256348,4401.794922,4420.512695,4456.794922,4412.94873,4362.307617,4421.922852,4221.538574,4418.717773
1698668234.362539,0.0,4319.487305,4384.358887,4296.153809,4352.05127,4396.153809,4402.179688,4417.436035,4462.179688,4414.487305,4367.179688,4420.512695,4175.128418,4419.487305
1698668234.370347,0.0,4316.538574,4388.846191,4293.717773,4349.487305,4392.692383,4405.641113,4418.589844,4465.0,4413.974121,4367.820313,4414.487305,4139.615234,4422.307617
1698668234.378155,0.0,4322.692383,4376.794922,4301.153809,4358.205078,4396.922852,4404.230957,4419.358887,4463.589844,4418.589844,4368.205078,4418.846191,4182.179688,4425.897461
1698668234.385964,0.0,4322.179688,4376.666504,4296.666504,4356.922852,4400.128418,4406.282227,4422.94873,4459.230957,4421.666504,4366.282227,4417.436035,4222.179688,4425.512695
1698668234.393772,0.0,4323.333496,4382.563965,4297.563965,4351.922852,4395.769043,4404.615234,4421.794922,4459.358887,4417.563965,4365.512695,4417.436035,4222.307617,4421.666504
1698668234.40158,0.0,4321.538574,4387.563965,4300.256348,4355.512695,4393.589844,4402.692383,4417.307617,4462.563965,4420.512695,4370.0,4419.102539,4189.102539,4425.0
1698668234.409388,0.0,4324.358887,4386.153809,4297.179688,4354.871582,4397.05127,4406.282227,4418.974121,4464.871582,4418.974121,4366.282227,4417.179688,4148.717773,4426.282227
1698668234.417196,0.0,4327.94873,4376.153809,4299.871582,4353.205078,4398.846191,4404.102539,4419.487305,4464.743652,4416.282227,4365.641113,4420.897461,4182.05127,4424.615234
1698668234.425005,0.0,4316.794922,4380.897461,4294.358887,4351.153809,4396.922852,4404.743652,4419.102539,4461.025879,4417.179688,4366.282227,4415.384766,4218.974121,4426.410156
1698668234.432813,0.0,4316.025879,4384.358887,4297.436035,4352.05127,4396.282227,4405.128418,4416.794922,4458.077148,4412.820313,4361.922852,4415.641113,4217.94873,4421.922852
1698668234.440621,0.0,4320.256348,4381.025879,4303.205078,4356.153809,4398.846191,4404.743652,4417.05127,4460.128418,4414.102539,4365.256348,4420.0,4192.692383,4420.512695
1698668234.448429,0.0,4322.94873,4378.589844,4298.077148,4355.128418,4399.358887,4408.717773,4421.410156,4465.128418,4415.512695,4368.589844,4412.563965,4154.230957,4425.384766
1698668234.456237,0.0,4324.487305,4377.563965,4306.282227,4353.333496,4397.307617,4405.897461,4418.717773,4464.230957,4415.0,4370.256348,4415.641113,4172.820313,4424.871582
1698668234.464046,0.0,4314.358887,4384.487305,4303.077148,4352.563965,4398.205078,4402.820313,4417.05127,4460.641113,4417.436035,4367.307617,4419.615234,4204.102539,4423.205078
1698668234.471854,0.0,4320.256348,4380.769043,4289.743652,4354.230957,4398.974121,4401.410156,4416.538574,4463.717773,4413.589844,4362.94873,4418.589844,4209.743652,4423.333496
1698668234.479662,0.0,4326.794922,4378.333496,4293.461426,4356.538574,4398.974121,4403.717773,4416.410156,4462.94873,4414.358887,4368.333496,4417.563965,4204.102539,4424.358887
1698668234.48747,0.0,4318.205078,4384.615234,4293.589844,4353.589844,4398.974121,4406.922852,4421.538574,4458.974121,4416.794922,4368.077148,4412.820313,4176.410156,4423.717773
1698668234.495278,0.0,4320.512695,4378.717773,4294.487305,4353.717773,4394.871582,4401.153809,4419.230957,4462.563965,4414.871582,4364.743652,4416.538574,4179.871582,4424.358887
1698668234.503087,0.0,4318.717773,4379.743652,4294.487305,4353.205078,4393.717773,4407.179688,4419.102539,4466.153809,4415.256348,4365.128418,4418.589844,4197.94873,4424.743652
1698668234.510895,0.0,4319.487305,4381.794922,4296.922852,4351.538574,4398.717773,4413.077148,4421.666504,4465.384766,4415.897461,4363.717773,4418.205078,4219.615234,4427.05127
1698668234.518703,0.0,4325.256348,4376.282227,4297.05127,4354.358887,4399.487305,4403.333496,4415.897461,4463.974121,4420.641113,4368.077148,4423.333496,4217.94873,4430.0
1698668234.526511,0.0,4322.563965,4383.589844,4288.974121,4353.205078,4397.563965,4403.077148,4417.436035,4462.307617,4418.077148,4367.563965,4419.230957,4155.384766,4425.128418
1698668234.53432,0.0,4325.256348,4384.358887,4300.256348,4355.0,4397.94873,4406.025879,4418.589844,4462.436035,4413.461426,4363.333496,4418.461426,4144.102539,4423.974121
1698668234.542128,0.0,4320.641113,4379.358887,4300.641113,4356.410156,4399.102539,4402.436035,4415.897461,4461.282227,4417.820313,4366.666504,4418.974121,4209.871582,4427.179688
1698668234.549936,0.0,4317.307617,4379.871582,4290.769043,4352.179688,4398.205078,4401.538574,4420.769043,4459.615234,4415.897461,4367.94873,4416.666504,4239.358887,4423.846191
1698668234.557744,0.0,4323.205078,4378.461426,4295.769043,4352.179688,4397.820313,4404.358887,4421.282227,4462.05127,4416.410156,4370.769043,4422.692383,4214.871582,4425.384766
1698668234.565553,0.0,4321.282227,4384.743652,4293.846191,4352.563965,4398.077148,4405.769043,4419.615234,4461.282227,4418.717773,4369.487305,4419.358887,4167.307617,4427.436035
1698668234.573361,0.0,4324.743652,4383.846191,4301.410156,4354.102539,4398.461426,4401.538574,4417.820313,4455.384766,4414.102539,4364.230957,4417.563965,4171.410156,4424.102539
1698668234.581169,0.0,4326.153809,4380.128418,4305.384766,4354.230957,4398.846191,4402.179688,4417.179688,4457.692383,4415.512695,4368.846191,4419.487305,4194.487305,4420.769043
1698668234.588977,0.0,4319.871582,4386.153809,4296.922852,4350.897461,4398.846191,4407.692383,4422.179688,4462.820313,4417.179688,4368.205078,4414.615234,4215.0,4421.666504
1698668234.596785,0.0,4320.769043,4382.436035,4306.922852,4357.179688,4398.205078,4405.256348,4421.025879,4460.128418,4415.128418,4363.974121,4417.307617,4212.94873,4424.358887
1698668234.604594,0.0,4326.794922,4374.743652,4310.384766,4361.282227,4397.436035,4400.512695,4416.794922,4460.0,4415.0,4365.512695,4417.436035,4156.025879,4421.922852
1698668234.612402,0.0,4336.538574,4363.077148,4301.282227,4359.102539,4396.153809,4395.512695,4412.94873,4467.307617,4416.922852,4371.153809,4424.487305,4153.974121,4423.717773
1698668234.62021,0.0,4323.205078,4369.230957,4292.436035,4361.025879,4395.512695,4396.666504,4413.974121,4465.256348,4428.846191,4381.794922,4423.974121,4206.922852,4430.384766
1698668234.628018,0.0,4305.897461,4387.820313,4286.794922,4358.846191,4398.205078,4405.384766,4421.025879,4462.179688,4435.384766,4380.384766,4405.769043,4232.05127,4425.256348
1698668234.635826,0.0,4319.615234,4380.769043,4301.410156,4357.179688,4399.358887,4403.205078,4421.538574,4466.922852,4433.205078,4379.102539,4407.436035,4257.820313,4418.717773
1698668234.643635,0.0,4324.615234,4381.282227,4304.358887,4357.179688,4399.743652,4403.717773,4422.179688,4466.794922,4435.128418,4385.384766,4403.974121,4240.0,4421.282227
1698668234.651443,0.0,4320.256348,4385.0,4296.153809,4357.05127,4398.846191,4404.871582,4423.077148,4471.538574,4434.102539,4382.820313,4397.05127,4228.333496,4420.897461
1698668234.659251,0.0,4320.769043,4379.102539,4293.205078,4360.897461,4395.256348,4398.461426,4419.743652,4474.615234,4438.974121,4385.128418,4404.871582,4256.410156,4418.974121
1698668234.667059,0.0,4318.974121,4378.974121,4283.589844,4355.0,4396.153809,4402.563965,4421.153809,4468.077148,4438.333496,4384.230957,4403.205078,4253.461426,4420.128418
1698668234.674868,0.0,4323.461426,4373.846191,4294.230957,4351.922852,4397.692383,4403.589844,4420.128418,4468.846191,4431.153809,4379.230957,4406.666504,4245.128418,4421.282227
1698668234.682676,0.0,4322.307617,4376.410156,4298.461426,4355.769043,4398.077148,4404.743652,4419.230957,4473.333496,4436.025879,4382.563965,4408.333496,4253.589844,4424.358887
1698668234.690484,0.0,4327.179688,4377.05127,4292.05127,4355.0,4398.461426,4409.230957,4421.410156,4474.743652,4437.692383,4382.179688,4402.820313,4238.333496,4421.025879
1698668234.698292,0.0,4323.974121,4373.461426,4299.102539,4353.974121,4396.794922,4405.641113,4419.615234,4468.077148,4434.743652,4381.153809,4407.179688,4241.282227,4419.102539
1698668234.7061,0.0,4311.794922,4378.589844,4294.871582,4353.974121,4397.05127,4407.563965,4422.307617,4460.256348,4429.743652,4377.307617,4407.563965,4249.358887,4422.563965
1698668234.713909,0.0,4326.538574,4376.282227,4300.384766,4357.820313,4397.563965,4408.589844,4421.922852,4466.666504,4426.922852,4375.0,4405.641113,4251.153809,4421.666504
1698668234.721717,0.0,4328.717773,4376.666504,4300.512695,4357.179688,4396.794922,4407.94873,4417.307617,4471.794922,4430.128418,4376.666504,4405.897461,4237.05127,4420.897461
1698668234.729525,0.0,4318.077148,4380.641113,4287.94873,4351.666504,4396.794922,4407.820313,4417.94873,4466.794922,4426.153809,4373.717773,4407.179688,4222.563965,4421.410156
1698668234.737333,0.0,4323.974121,4376.153809,4294.230957,4355.0,4396.025879,4403.846191,4416.282227,4463.974121,4423.846191,4375.512695,4412.436035,4247.307617,4423.461426
1698668234.745142,0.0,4323.333496,4378.717773,4292.563965,4354.615234,4397.05127,4405.897461,4417.307617,4466.153809,4422.307617,4373.974121,4406.410156,4246.282227,4425.897461
1698668234.75295,0.0,4323.205078,4379.871582,4291.410156,4352.307617,4398.846191,4405.384766,4418.846191,4464.487305,4417.05127,4371.025879,4408.846191,4227.563965,4425.897461
1698668234.760758,0.0,4321.538574,4380.769043,4294.230957,4355.256348,4398.461426,4404.230957,4419.871582,4457.94873,4419.358887,4374.871582,4417.307617,4238.589844,4425.512695
1698668234.768566,0.0,4319.102539,4385.769043,4295.256348,4353.589844,4398.717773,4407.05127,4424.871582,4457.692383,4418.846191,4371.922852,4406.410156,4245.384766,4423.717773
1698668234.776374,0.0,4323.461426,4379.615234,4306.666504,4354.487305,4397.820313,4403.077148,4420.641113,4462.05127,4417.94873,4370.256348,4407.563965,4255.256348,4424.871582
1698668234.784183,0.0,4321.410156,4380.897461,4302.179688,4354.871582,4397.820313,4406.282227,4418.077148,4462.179688,4421.666504,4371.922852,4413.717773,4231.153809,4428.846191
1698668234.791991,0.0,4325.641113,4380.384766,4299.487305,4355.128418,4399.615234,4408.974121,4421.666504,4460.384766,4415.0,4368.846191,4410.897461,4208.589844,4428.461426
1698668234.799799,0.0,4322.563965,4377.94873,4300.769043,4358.974121,4399.615234,4403.333496,4418.589844,4459.358887,4413.461426,4368.717773,4413.205078,4239.743652,4426.794922
1698668234.807607,0.0,4307.820313,4386.538574,4293.461426,4355.897461,4397.820313,4401.666504,4418.333496,4457.307617,4416.282227,4367.05127,4413.717773,4261.025879,4426.282227
1698668234.815416,0.0,4313.589844,4382.94873,4304.615234,4353.846191,4394.230957,4401.153809,4419.487305,4458.461426,4414.102539,4369.743652,4415.512695,4264.102539,4426.538574
1698668234.823224,0.0,4324.615234,4381.794922,4304.230957,4354.871582,4393.205078,4405.897461,4420.769043,4463.717773,4417.179688,4372.820313,4412.179688,4234.487305,4428.717773
1698668234.831032,0.0,4324.102539,4382.05127,4295.512695,4355.769043,4394.615234,4407.307617,4420.769043,4463.589844,4416.794922,4367.307617,4411.153809,4198.846191,4429.230957
1698668234.83884,0.0,4322.05127,4377.820313,4302.436035,4358.077148,4396.153809,4401.538574,4415.897461,4462.436035,4418.846191,4370.897461,4412.692383,4236.538574,4428.205078
1698668234.846648,0.0,4322.563965,4384.230957,4304.230957,4353.717773,4397.436035,4405.769043,4418.846191,4461.410156,4420.128418,4371.794922,4404.871582,4278.205078,4426.410156
1698668234.854457,0.0,4322.94873,4386.666504,4309.871582,4353.077148,4397.820313,4408.205078,4420.641113,4456.153809,4416.538574,4367.05127,4410.256348,4269.615234,4427.436035
1698668234.862265,0.0,4319.230957,4386.282227,4304.487305,4357.94873,4397.436035,4407.692383,4418.589844,4457.820313,4420.0,4370.512695,4416.922852,4229.743652,4430.897461
1698668234.870073,0.0,4330.0,4377.692383,4292.820313,4356.153809,4396.794922,4408.589844,4419.102539,4463.461426,4417.563965,4367.179688,4414.615234,4200.128418,4426.538574
1698668234.877881,0.0,4331.025879,4372.94873,4301.282227,4354.358887,4398.589844,4405.384766,4417.94873,4459.487305,4414.615234,4366.282227,4417.179688,4229.230957,4425.512695
1698668234.885689,0.0,4312.436035,4383.589844,4299.487305,4353.589844,4400.897461,4405.128418,4419.871582,4454.615234,4415.641113,4369.487305,4414.358887,4259.102539,4430.0
1698668234.893498,0.0,4321.153809,4379.615234,4296.922852,4353.461426,4397.94873,4404.230957,4419.358887,4458.974121,4414.743652,4367.820313,4416.153809,4263.974121,4427.436035
1698668234.901306,0.0,4327.820313,4378.205078,4300.512695,4354.487305,4395.641113,4405.897461,4420.0,4462.05127,4418.717773,4371.282227,4418.333496,4240.897461,4426.922852
1698668234.909114,0.0,4318.333496,4385.384766,4301.538574,4353.589844,4397.563965,4407.307617,4421.538574,4459.871582,4417.820313,4370.769043,4412.94873,4210.0,4427.94873
1698668234.916922,0.0,4322.94873,4380.769043,4309.871582,4356.025879,4398.589844,4401.794922,4415.256348,4460.897461,4417.179688,4367.692383,4415.641113,4238.461426,4427.436035
1698668234.924731,0.0,4324.743652,4378.717773,4299.615234,4354.230957,4398.205078,4406.794922,4416.922852,4465.897461,4421.025879,4370.769043,4416.025879,4251.922852,4430.0
1698668234.932539,0.0,4324.743652,4379.487305,4293.077148,4350.641113,4398.077148,4408.461426,4422.307617,4466.282227,4420.256348,4372.05127,4415.128418,4236.025879,4429.487305
1698668234.940347,0.0,4322.05127,4381.025879,4303.461426,4355.0,4396.922852,4402.563965,4419.871582,4464.102539,4421.025879,4372.820313,4416.666504,4244.230957,4428.461426
1698668234.948155,0.0,4323.717773,4381.025879,4303.461426,4357.692383,4396.538574,4407.179688,4418.589844,4464.743652,4418.717773,4368.717773,4414.615234,4244.743652,4429.230957
1698668234.955963,0.0,4333.846191,4375.0,4305.384766,4358.589844,4396.794922,4408.589844,4418.333496,4462.820313,4417.820313,4367.94873,4418.333496,4245.897461,4429.871582
1698668234.963772,0.0,4327.692383,4378.717773,4300.384766,4353.589844,4397.94873,4406.666504,4421.538574,4460.384766,4420.641113,4371.282227,4414.871582,4230.641113,4428.974121
1698668234.97158,0.0,4327.94873,4379.615234,4300.512695,4350.512695,4398.333496,4405.128418,4422.563965,4463.077148,4415.512695,4370.0,4411.538574,4236.538574,4428.846191
1698668234.979388,0.0,4332.94873,4371.666504,4303.974121,4356.794922,4397.179688,4402.307617,4418.333496,4462.179688,4416.153809,4373.077148,4418.333496,4261.153809,4432.563965
1698668234.987196,0.0,4324.230957,4377.692383,4297.05127,4356.025879,4396.922852,4407.179688,4420.897461,4455.256348,4417.563965,4370.769043,4412.94873,4232.692383,4429.743652
1698668234.995005,0.0,4325.897461,4379.615234,4306.538574,4354.358887,4396.666504,4405.769043,4420.256348,4456.922852,4414.358887,4366.538574,4412.179688,4226.410156,4426.794922
1698668235.002813,0.0,4322.820313,4377.179688,4302.436035,4354.487305,4397.94873,4402.820313,4416.282227,4462.179688,4418.974121,4371.410156,4416.794922,4250.384766,4430.128418
1698668235.010621,0.0,4319.615234,4376.666504,4291.538574,4355.256348,4397.692383,4407.436035,4417.563965,4461.410156,4418.205078,4371.666504,4414.487305,4248.589844,4428.461426
1698668235.018429,0.0,4322.179688,4377.307617,4303.461426,4360.641113,4395.641113,4408.589844,4417.563965,4462.179688,4416.922852,4372.563965,4417.436035,4250.256348,4428.205078
1698668235.026237,0.0,4319.230957,4384.358887,4301.410156,4356.410156,4399.230957,4405.512695,4423.333496,4462.820313,4419.743652,4370.641113,4415.512695,4237.692383,4428.846191
1698668235.034046,0.0,4325.128418,4374.102539,4297.436035,4353.589844,4399.230957,4401.153809,4424.743652,4461.538574,4417.692383,4367.94873,4417.179688,4230.128418,4426.922852
1698668235.041854,0.0,4325.769043,4373.461426,4299.743652,4360.128418,4393.974121,4405.256348,4419.871582,4463.846191,4419.487305,4371.282227,4418.333496,4242.436035,4429.615234
1698668235.049662,0.0,4320.256348,4387.820313,4303.461426,4359.871582,4395.897461,4408.205078,4421.025879,4460.641113,4415.384766,4367.436035,4411.794922,4260.897461,4426.153809
1698668235.05747,0.0,4314.230957,4384.487305,4309.871582,4355.128418,4400.641113,4401.538574,4421.410156,4453.205078,4411.922852,4368.589844,4417.05127,4265.769043,4422.436035
1698668235.065278,0.0,4313.077148,4382.307617,4299.615234,4351.922852,4399.615234,4403.461426,4421.666504,4461.025879,4415.384766,4373.333496,4418.077148,4217.05127,4426.282227
1698668235.073087,0.0,4327.307617,4379.102539,4297.692383,4355.384766,4397.307617,4405.897461,4419.487305,4469.487305,4415.512695,4371.025879,4417.94873,4203.077148,4426.025879
1698668235.080895,0.0,4327.820313,4375.256348,4299.743652,4360.384766,4397.307617,4405.384766,4418.333496,4462.692383,4418.589844,4371.538574,4419.102539,4256.794922,4425.0
1698668235.088703,0.0,4323.205078,4373.717773,4291.025879,4356.282227,4396.666504,4405.769043,4422.436035,4460.769043,4416.922852,4369.487305,4414.615234,4276.153809,4425.128418
1698668235.096511,0.0,4330.769043,4374.615234,4294.358887,4357.563965,4395.897461,4400.512695,4419.487305,4462.94873,4415.897461,4369.871582,4421.153809,4262.563965,4428.717773
1698668235.10432,0.0,4325.897461,4384.102539,4295.512695,4360.384766,4397.307617,4403.717773,4418.077148,4459.871582,4419.743652,4371.282227,4419.102539,4225.0,4433.461426
1698668235.112128,0.0,4326.922852,4378.077148,4301.794922,4357.307617,4398.205078,4407.563965,4418.461426,4460.256348,4416.410156,4369.230957,4413.205078,4207.436035,4428.077148
1698668235.119936,0.0,4332.179688,4373.974121,4306.153809,4356.282227,4398.461426,4403.974121,4417.436035,4463.077148,4416.410156,4372.820313,4416.922852,4250.512695,4426.153809
1698668235.127744,0.0,4321.410156,4386.666504,4296.282227,4354.871582,4397.05127,4404.743652,4422.436035,4460.641113,4416.153809,4369.615234,4415.128418,4273.717773,4428.205078
1698668235.135553,0.0,4315.641113,4386.282227,4305.769043,4356.025879,4394.615234,4405.128418,4421.410156,4455.769043,4415.641113,4367.94873,4417.820313,4264.743652,4427.307617
1698668235.143361,0.0,4315.0,4384.615234,4309.871582,4354.487305,4395.897461,4409.230957,4419.743652,4456.794922,4420.128418,4371.282227,4417.307617,4227.820313,4425.0
1698668235.151169,0.0,4325.0,4382.436035,4301.922852,4354.487305,4397.692383,4409.487305,4422.436035,4462.563965,4416.025879,4367.563965,4414.358887,4206.794922,4424.743652
1698668235.158977,0.0,4329.230957,4375.256348,4298.461426,4359.615234,4397.179688,4403.077148,4418.846191,4463.717773,4415.769043,4372.05127,4417.820313,4245.512695,4430.512695
1698668235.166785,0.0,4315.641113,4381.153809,4287.179688,4355.0,4397.436035,4405.384766,4418.846191,4462.563965,4418.974121,4374.230957,4415.384766,4257.563965,4429.230957
1698668235.174594,0.0,4318.461426,4382.307617,4294.871582,4353.717773,4396.153809,4404.358887,4418.461426,4464.871582,4415.512695,4368.717773,4419.358887,4251.794922,4423.589844
1698668235.182402,0.0,4326.025879,4379.743652,4301.153809,4358.461426,4397.307617,4403.717773,4418.846191,4466.282227,4416.794922,4370.0,4419.487305,4248.205078,4427.692383
1698668235.19021,0.0,4332.94873,4378.846191,4295.897461,4357.05127,4400.897461,4406.410156,4426.410156,4466.153809,4416.538574,4370.256348,4412.307617,4224.230957,4428.846191
1698668235.198018,0.0,4327.436035,4376.282227,4299.358887,4356.538574,4399.487305,4402.436035,4424.615234,4464.230957,4416.153809,4371.282227,4417.820313,4238.333496,4425.128418
1698668235.205826,0.0,4313.589844,4382.94873,4293.205078,4354.102539,4398.205078,4405.384766,4417.820313,4460.641113,4417.179688,4370.384766,4419.487305,4259.615234,4424.102539
1698668235.213635,0.0,4327.692383,4379.358887,4297.436035,4355.769043,4398.461426,4408.974121,4414.871582,4464.358887,4417.05127,4368.077148,4419.230957,4263.461426,4424.743652
1698668235.221443,0.0,4333.205078,4375.128418,4301.666504,4358.205078,4398.846191,4404.487305,4416.025879,4467.692383,4420.256348,4371.538574,4418.461426,4238.205078,4426.282227
1698668235.229251,0.0,4321.153809,4381.282227,4299.487305,4354.230957,4399.615234,4400.512695,4420.384766,4465.128418,4416.410156,4370.384766,4413.205078,4213.717773,4425.641113
1698668235.237059,0.0,4322.307617,4380.769043,4308.077148,4355.0,4396.410156,4399.743652,4416.922852,4464.743652,4414.102539,4371.922852,4419.743652,4245.769043,4426.025879
1698668235.244867,0.0,4322.820313,4383.205078,4299.102539,4353.974121,4394.871582,4407.94873,4415.769043,4460.641113,4415.641113,4371.410156,4419.358887,4250.384766,4428.205078
1698668235.252676,0.0,4324.615234,4380.128418,4301.025879,4351.794922,4398.077148,4406.922852,4418.077148,4454.487305,4411.410156,4366.282227,4412.94873,4226.410156,4426.538574
1698668235.260484,0.0,4325.0,4378.846191,4313.717773,4356.025879,4398.589844,4402.307617,4416.922852,4456.794922,4416.282227,4371.153809,4411.410156,4244.487305,4424.871582
1698668235.268292,0.0,4323.333496,4381.922852,4301.666504,4355.128418,4395.641113,4410.384766,4419.230957,4463.717773,4418.717773,4371.410156,4410.897461,4258.205078,4424.871582
1698668235.276101,0.0,4323.333496,4374.871582,4298.974121,4352.307617,4395.512695,4409.230957,4417.05127,4461.153809,4415.0,4369.871582,4420.641113,4264.102539,4427.436035
1698668235.283909,0.0,4312.05127,4380.512695,4299.871582,4351.922852,4399.358887,4404.358887,4416.282227,4455.769043,4418.077148,4371.794922,4419.230957,4243.077148,4427.05127
1698668235.291717,0.0,4317.179688,4385.0,4300.512695,4353.077148,4400.897461,4406.666504,4420.897461,4458.846191,4414.743652,4368.461426,4412.820313,4223.461426,4424.871582
1698668235.299525,0.0,4329.358887,4384.358887,4307.563965,4355.897461,4397.436035,4406.794922,4423.461426,4458.461426,4414.358887,4370.384766,4419.487305,4244.102539,4427.563965
1698668235.307333,0.0,4320.897461,4388.077148,4296.282227,4353.589844,4396.666504,4404.871582,4423.205078,4455.897461,4419.102539,4370.641113,4418.205078,4250.0,4424.871582
1698668235.315142,0.0,4321.025879,4379.615234,4294.871582,4354.743652,4397.692383,4401.282227,4416.538574,4462.436035,4419.230957,4368.461426,4417.05127,4244.615234,4421.922852
1698668235.32295,0.0,4322.05127,4382.563965,4303.205078,4356.922852,4398.846191,4405.512695,4419.230957,4464.615234,4418.077148,4368.717773,4416.025879,4237.05127,4427.307617
1698668235.330758,0.0,4320.128418,4390.641113,4302.820313,4353.589844,4399.871582,4406.153809,4423.205078,4459.615234,4413.846191,4365.128418,4415.384766,4234.615234,4428.077148
1698668235.338566,0.0,4319.871582,4382.692383,4298.205078,4355.641113,4398.077148,4397.692383,4415.256348,4460.0,4417.563965,4370.256348,4421.666504,4253.461426,4427.692383
1698668235.346374,0.0,4318.846191,4376.922852,4288.333496,4353.077148,4396.538574,4402.692383,4417.820313,4462.563965,4420.128418,4370.128418,4415.512695,4236.538574,4425.641113
1698668235.354183,0.0,4333.717773,4375.769043,4297.94873,4353.333496,4397.307617,4408.461426,4420.256348,4462.05127,4414.358887,4362.94873,4416.025879,4239.487305,4424.358887
1698668235.361991,0.0,4335.641113,4380.897461,4300.897461,4358.717773,4397.436035,4408.461426,4416.410156,4463.717773,4416.922852,4368.589844,4421.025879,4256.538574,4428.205078
1698668235.369799,0.0,4325.256348,4386.410156,4296.410156,4355.384766,4396.153809,4407.179688,4419.230957,4463.717773,4416.025879,4370.128418,4413.077148,4228.205078,4425.128418
1698668235.377607,0.0,4320.897461,4386.538574,4312.436035,4356.025879,4394.615234,4401.025879,4420.256348,4457.05127,4415.769043,4368.974121,4412.692383,4232.820313,4425.384766
1698668235.385415,0.0,4312.05127,4389.871582,4305.256348,4357.307617,4396.410156,4405.128418,4422.94873,4453.205078,4417.307617,4370.512695,4412.94873,4253.717773,4427.820313
1698668235.393224,0.0,4316.666504,4381.153809,4294.743652,4356.025879,4397.307617,4409.487305,4421.538574,4456.794922,4413.589844,4368.846191,4413.589844,4261.538574,4423.717773
1698668235.401032,0.0,4321.410156,4373.846191,4301.794922,4354.358887,4396.922852,4406.410156,4415.897461,4459.871582,4416.025879,4370.769043,4413.846191,4247.94873,4425.384766
1698668235.40884,0.0,4320.256348,4381.922852,4301.025879,4352.563965,4397.692383,4404.615234,4419.358887,4462.436035,4414.102539,4367.820313,4409.615234,4213.077148,4427.94873
1698668235.416648,0.0,4322.692383,4379.102539,4300.512695,4355.769043,4397.820313,4403.077148,4421.025879,4462.692383,4414.230957,4368.846191,4415.769043,4231.794922,4425.769043
1698668235.424456,0.0,4314.358887,4379.743652,4292.94873,4354.487305,4395.897461,4405.769043,4420.512695,4458.974121,4419.358887,4370.641113,4415.384766,4258.205078,4424.487305
1698668235.432265,0.0,4318.205078,4381.538574,4294.358887,4354.102539,4395.256348,4403.077148,4419.487305,4460.512695,4414.487305,4365.0,4414.487305,4266.666504,4424.487305
1698668235.440073,0.0,4327.179688,4377.820313,4298.846191,4355.769043,4398.461426,4401.794922,4416.794922,4463.333496,4416.410156,4367.94873,4420.128418,4257.692383,4426.025879
1698668235.447881,0.0,4321.153809,4382.307617,4291.922852,4352.05127,4400.128418,4409.743652,4421.025879,4460.0,4418.333496,4369.102539,4415.769043,4205.769043,4426.025879
1698668235.45569,0.0,4318.461426,4377.307617,4301.922852,4354.487305,4397.05127,4405.512695,4420.128418,4458.205078,4413.717773,4369.358887,4418.461426,4214.358887,4424.358887
1698668235.463498,0.0,4312.692383,4378.717773,4299.102539,4356.666504,4396.410156,4401.410156,4419.487305,4460.384766,4414.743652,4372.179688,4416.282227,4264.615234,4424.230957
1698668235.471306,0.0,4318.461426,4383.333496,4290.256348,4354.230957,4397.436035,4405.769043,4424.487305,4462.94873,4414.230957,4366.922852,4413.077148,4287.436035,4422.563965
1698668235.479114,0.0,4327.436035,4382.05127,4299.871582,4355.769043,4396.922852,4405.897461,4423.077148,4460.897461,4416.538574,4368.717773,4418.589844,4269.871582,4423.974121
1698668235.486922,0.0,4319.230957,4386.282227,4296.153809,4352.436035,4398.974121,4406.153809,4421.282227,4460.769043,4417.692383,4369.358887,4414.487305,4198.077148,4425.128418
1698668235.494731,0.0,4322.05127,4379.743652,4297.307617,4354.102539,4399.487305,4405.256348,4417.563965,4465.641113,4413.589844,4366.538574,4418.846191,4187.05127,4422.692383
1698668235.502539,0.0,4327.179688,4380.641113,4301.025879,4358.333496,4397.820313,4410.128418,4418.461426,4463.461426,4416.666504,4369.487305,4418.717773,4253.974121,4424.487305
1698668235.510347,0.0,4326.282227,4382.820313,4300.256348,4352.820313,4398.077148,4413.205078,4424.230957,4460.384766,4415.769043,4366.025879,4409.102539,4294.743652,4423.974121
1698668235.518155,0.0,4322.05127,4376.794922,4304.358887,4353.717773,4398.717773,4403.077148,4419.743652,4461.538574,4414.615234,4367.05127,4415.128418,4272.05127,4421.538574
1698668235.525963,0.0,4318.333496,4377.05127,4295.897461,4353.974121,4399.615234,4403.461426,4418.461426,4462.692383,4415.0,4370.128418,4414.871582,4201.153809,4423.205078
1698668235.533772,0.0,4326.794922,4376.153809,4299.230957,4352.436035,4397.436035,4408.077148,4419.358887,4459.615234,4412.436035,4368.717773,4413.974121,4193.846191,4425.512695
1698668235.54158,0.0,4326.153809,4382.307617,4301.153809,4355.512695,4396.025879,4406.922852,4417.820313,4457.179688,4417.307617,4371.282227,4416.410156,4257.436035,4426.025879
1698668235.549388,0.0,4320.384766,4383.589844,4292.820313,4353.589844,4396.922852,4405.0,4419.615234,4461.153809,4416.025879,4368.589844,4412.179688,4284.743652,4421.153809
1698668235.557196,0.0,4320.384766,4377.563965,4303.077148,4356.538574,4396.153809,4400.0,4419.615234,4462.179688,4413.974121,4369.358887,4416.410156,4262.820313,4421.794922
1698668235.565004,0.0,4316.153809,4384.358887,4300.897461,4358.974121,4397.692383,4404.358887,4423.077148,4459.358887,4417.307617,4370.0,4418.461426,4214.487305,4426.538574
1698668235.572813,0.0,4325.0,4381.666504,4302.307617,4357.436035,4398.846191,4407.820313,4424.230957,4462.307617,4413.589844,4365.128418,4417.307617,4201.153809,4423.461426
1698668235.580621,0.0,4329.358887,4378.846191,4311.410156,4357.436035,4398.974121,4406.538574,4419.487305,4466.410156,4417.307617,4368.461426,4414.743652,4245.512695,4423.589844
1698668235.588429,0.0,4325.128418,4383.205078,4298.205078,4352.436035,4398.846191,4407.692383,4419.487305,4466.794922,4418.846191,4366.794922,4410.256348,4275.641113,4426.282227
1698668235.596237,0.0,4328.589844,4371.922852,4294.487305,4354.871582,4396.538574,4402.179688,4419.230957,4464.615234,4413.205078,4365.897461,4418.333496,4280.256348,4424.358887
1698668235.604046,0.0,4316.025879,4376.794922,4296.282227,4357.307617,4397.94873,4401.922852,4423.589844,4460.512695,4417.563965,4370.897461,4418.717773,4229.743652,4422.179688
1698668235.611854,0.0,4313.333496,4388.717773,4300.769043,4354.743652,4397.94873,4403.846191,4425.128418,4458.589844,4420.769043,4367.94873,4416.282227,4191.025879,4422.307617
1698668235.619662,0.0,4322.692383,4383.077148,4307.307617,4357.307617,4393.589844,4404.358887,4417.436035,4456.282227,4418.974121,4369.487305,4422.307617,4242.307617,4425.897461
1698668235.62747,0.0,4323.077148,4383.846191,4302.307617,4356.025879,4395.769043,4408.717773,4419.358887,4453.846191,4416.282227,4371.153809,4415.128418,4271.282227,4426.282227
1698668235.635279,0.0,4331.794922,4379.358887,4304.230957,4355.384766,4400.641113,4403.589844,4421.666504,4456.666504,4415.641113,4368.333496,4414.358887,4260.384766,4424.102539
1698668235.643087,0.0,4329.102539,4379.615234,4297.179688,4356.538574,4399.615234,4402.820313,4419.230957,4458.461426,4417.94873,4367.179688,4418.974121,4235.384766,4426.025879
1698668235.650895,0.0,4323.846191,4384.871582,4293.461426,4355.128418,4397.563965,4406.282227,4420.769043,4460.384766,4413.974121,4364.743652,4415.128418,4209.615234,4424.487305
1698668235.658703,0.0,4325.641113,4380.512695,4306.282227,4357.307617,4398.974121,4402.692383,4421.025879,4461.410156,4414.358887,4368.077148,4416.922852,4239.358887,4424.487305
1698668235.666511,0.0,4322.692383,4384.230957,4299.358887,4356.794922,4400.769043,4405.0,4423.333496,4461.025879,4416.410156,4369.871582,4413.974121,4264.487305,4428.461426
1698668235.67432,0.0,4327.563965,4381.282227,4294.871582,4354.358887,4398.846191,4405.769043,4420.512695,4462.05127,4414.358887,4367.692383,4415.128418,4263.974121,4425.897461
1698668235.682128,0.0,4321.794922,4379.615234,4293.205078,4352.692383,4396.410156,4403.846191,4416.410156,4457.436035,4417.05127,4368.717773,4419.102539,4246.153809,4423.846191
1698668235.689936,0.0,4317.692383,4384.230957,4289.743652,4353.205078,4398.077148,4405.128418,4418.589844,4454.102539,4415.769043,4365.256348,4415.256348,4215.0,4426.025879
1698668235.697744,0.0,4325.641113,4383.717773,4306.538574,4356.282227,4400.769043,4404.615234,4419.487305,4457.563965,4415.256348,4366.922852,4414.358887,4229.743652,4425.0
1698668235.705552,0.0,4323.589844,4383.717773,4303.077148,4351.538574,4401.282227,4408.846191,4423.974121,4459.230957,4416.538574,4368.205078,4408.846191,4246.794922,4423.974121
1698668235.713361,0.0,4328.589844,4375.256348,4293.589844,4351.794922,4398.974121,4407.563965,4424.102539,4459.743652,4414.743652,4363.717773,4411.666504,4254.743652,4424.743652
1698668235.721169,0.0,4327.94873,4378.461426,4298.077148,4359.615234,4397.820313,4402.05127,4418.077148,4458.205078,4420.256348,4368.846191,4418.333496,4250.256348,4425.769043
1698668235.728977,0.0,4323.205078,4386.282227,4298.717773,4355.128418,4398.846191,4405.769043,4419.487305,4457.820313,4418.077148,4368.589844,4413.589844,4208.461426,4425.384766
1698668235.736785,0.0,4331.922852,4376.794922,4302.307617,4352.692383,4396.666504,4406.153809,4418.589844,4463.717773,4413.205078,4366.794922,4415.0,4217.436035,4426.153809
1698668235.744594,0.0,4324.358887,4377.563965,4290.0,4354.230957,4396.025879,4405.897461,4418.461426,4461.922852,4415.641113,4369.358887,4415.0,4257.05127,4425.641113
1698668235.752402,0.0,4321.538574,4380.897461,4289.230957,4353.205078,4398.974121,4403.589844,4420.0,4458.589844,4413.205078,4366.410156,4417.820313,4284.615234,4422.05127
1698668235.76021,0.0,4326.153809,4380.256348,4302.05127,4356.922852,4400.0,4402.563965,4417.307617,4461.666504,4417.692383,4367.563965,4422.692383,4262.05127,4425.128418
1698668235.768018,0.0,4318.077148,4385.128418,4297.179688,4354.358887,4399.230957,4409.615234,4423.333496,4460.256348,4418.717773,4365.256348,4412.179688,4186.025879,4425.128418
1698668235.775826,0.0,4319.615234,4384.230957,4306.282227,4354.871582,4399.358887,4406.410156,4422.94873,4458.717773,4412.05127,4363.077148,4410.769043,4197.94873,4421.410156
1698668235.783635,0.0,4321.410156,4384.871582,4306.410156,4356.153809,4398.589844,4406.025879,4420.512695,4463.461426,4415.512695,4365.897461,4413.461426,4270.897461,4423.846191
1698668235.791443,0.0,4325.897461,4380.0,4297.05127,4352.179688,4397.820313,4411.538574,4425.256348,4466.538574,4417.692383,4365.128418,4411.666504,4294.230957,4425.0
1698668235.799251,0.0,4327.179688,4375.0,4302.436035,4356.794922,4400.384766,4407.307617,4419.358887,4463.333496,4417.05127,4367.94873,4415.769043,4260.641113,4429.487305
1698668235.807059,0.0,4317.820313,4382.307617,4293.205078,4355.384766,4398.974121,4403.717773,4416.538574,4462.179688,4413.333496,4366.410156,4413.717773,4194.102539,4430.256348
1698668235.814868,0.0,4323.974121,4378.461426,4293.717773,4352.179688,4394.230957,4402.436035,4419.358887,4460.384766,4413.205078,4366.410156,4419.102539,4198.589844,4426.025879
1698668235.822676,0.0,4325.512695,4380.384766,4295.769043,4354.871582,4397.436035,4405.512695,4421.794922,4455.384766,4420.128418,4369.487305,4420.897461,4256.410156,4429.102539
1698668235.830484,0.0,4322.94873,4382.692383,4290.512695,4355.641113,4400.512695,4406.666504,4420.512695,4460.384766,4415.128418,4363.333496,4412.436035,4288.717773,4426.153809
1698668235.838292,0.0,4325.897461,4375.0,4301.666504,4357.563965,4395.256348,4401.410156,4417.05127,4459.230957,4413.974121,4365.512695,4415.0,4271.282227,4426.025879
1698668235.8461,0.0,4320.128418,4384.230957,4304.487305,4353.717773,4395.512695,4406.794922,4423.333496,4451.153809,4420.256348,4369.615234,4411.922852,4196.282227,4428.333496
1698668235.853909,0.0,4322.179688,4385.384766,4306.538574,4352.436035,4400.128418,4410.0,4423.333496,4457.05127,4417.94873,4367.179688,4413.974121,4184.102539,4423.077148
1698668235.861717,0.0,4321.025879,4379.487305,4300.0,4357.563965,4398.333496,4406.025879,4417.307617,4460.384766,4418.205078,4368.205078,4417.179688,4260.256348,4423.589844
1698668235.869525,0.0,4321.922852,4378.589844,4288.333496,4356.025879,4397.05127,4405.897461,4420.384766,4460.0,4416.282227,4365.256348,4410.512695,4291.794922,4424.615234
1698668235.877333,0.0,4328.717773,4375.128418,4300.384766,4355.512695,4398.077148,4403.589844,4422.05127,4458.461426,4414.102539,4367.179688,4417.05127,4264.358887,4425.128418
1698668235.885141,0.0,4322.820313,4384.743652,4299.230957,4357.179688,4398.461426,4407.436035,4422.563965,4452.307617,4416.794922,4368.077148,4416.538574,4214.102539,4425.256348
1698668235.89295,0.0,4322.307617,4383.589844,4294.230957,4355.128418,4397.563965,4407.692383,4424.743652,4454.871582,4414.102539,4362.307617,4411.282227,4208.846191,4420.128418
