type,marker_value,duration,timestamp
phase_Parallel_Universes_Road,recording_eyes_closed,8.003424,1698668562.768419
Timestamp,EEG.AF3,EEG.F7,EEG.F3,EEG.FC5,EEG.T7,EEG.P7,EEG.O1,EEG.O2,EEG.P8,EEG.T8,EEG.FC6,EEG.F4,EEG.F8,EEG.AF4
1698668562.768419,0.0,4330.769043,4385.769043,4295.256348,4359.102539,4406.153809,4414.358887,4430.512695,4478.333496,4433.077148,4385.769043,4421.153809,4216.153809,4423.717773
1698668562.776227,0.0,4329.743652,4392.94873,4289.615234,4359.358887,4405.641113,4411.794922,4433.461426,4476.282227,4433.333496,4384.102539,4419.102539,4230.128418,4428.717773
1698668562.784035,0.0,4332.05127,4392.05127,4295.641113,4360.769043,4406.538574,4407.692383,4433.974121,4477.820313,4436.025879,4387.436035,4425.256348,4275.128418,4423.205078
1698668562.791844,0.0,4327.820313,4396.666504,4291.410156,4357.436035,4405.769043,4412.05127,4433.333496,4476.153809,4436.794922,4386.410156,4421.538574,4257.307617,4419.487305
1698668562.799652,0.0,4333.461426,4389.871582,4295.128418,4357.436035,4405.641113,4412.692383,4433.589844,4475.384766,4430.641113,4381.153809,4420.769043,4221.153809,4422.05127
1698668562.80746,0.0,4331.922852,4387.179688,4296.538574,4361.538574,4409.743652,4411.282227,4431.153809,4477.94873,4434.102539,4386.666504,4425.0,4215.897461,4426.538574
1698668562.815268,0.0,4327.436035,4396.025879,4289.615234,4361.922852,4409.615234,4413.846191,4429.102539,4478.589844,4435.128418,4388.333496,4420.641113,4224.487305,4424.615234
1698668562.823076,0.0,4334.743652,4387.820313,4292.94873,4363.205078,4403.461426,4411.025879,4429.871582,4480.512695,4433.589844,4388.333496,4420.384766,4261.922852,4422.05127
1698668562.830885,0.0,4332.563965,4388.974121,4286.666504,4362.436035,4402.94873,4410.128418,4433.077148,4477.436035,4434.358887,4388.205078,4418.589844,4256.282227,4426.410156
1698668562.838693,0.0,4328.846191,4393.717773,4288.589844,4360.769043,4406.410156,4411.922852,4432.820313,4473.589844,4431.666504,4384.358887,4418.717773,4230.384766,4425.769043
1698668562.846501,0.0,4333.205078,4386.025879,4298.974121,4362.436035,4406.025879,4413.461426,4430.0,4480.256348,4434.871582,4385.769043,4421.794922,4209.871582,4422.05127
1698668562.854309,0.0,4331.922852,4388.461426,4291.922852,4362.05127,4404.871582,4417.563965,4431.922852,4479.743652,4436.282227,4390.512695,4419.743652,4219.615234,4426.025879
1698668562.862117,0.0,4326.153809,4406.922852,4284.487305,4360.0,4406.666504,4420.128418,4432.179688,4469.487305,4431.666504,4388.717773,4418.589844,4279.615234,4433.589844
1698668562.869926,0.0,4322.307617,4413.333496,4285.0,4356.666504,4408.974121,4421.794922,4430.256348,4470.641113,4426.666504,4375.512695,4420.897461,4227.307617,4434.230957
1698668562.877734,0.0,4331.025879,4383.077148,4302.307617,4356.666504,4404.102539,4414.358887,4429.358887,4484.230957,4427.94873,4374.102539,4432.692383,4172.179688,4423.461426
1698668562.885542,0.0,4337.692383,4373.077148,4308.846191,4359.743652,4399.230957,4408.589844,4428.077148,4485.769043,4435.512695,4386.538574,4435.897461,4227.692383,4422.94873
1698668562.89335,0.0,4330.769043,4391.794922,4293.077148,4360.0,4402.436035,4414.358887,4428.717773,4476.666504,4430.769043,4382.563965,4424.487305,4222.436035,4430.0
1698668562.901158,0.0,4331.282227,4385.0,4295.128418,4361.538574,4404.871582,4411.153809,4431.922852,4478.589844,4428.205078,4381.153809,4427.692383,4193.461426,4424.615234
1698668562.908967,0.0,4330.769043,4386.666504,4295.0,4360.256348,4404.230957,4410.897461,4434.743652,4480.384766,4434.871582,4387.307617,4426.794922,4188.461426,4428.974121
1698668562.916775,0.0,4331.282227,4391.538574,4291.282227,4356.538574,4403.205078,4414.230957,4431.666504,4478.974121,4432.179688,4380.897461,4420.769043,4208.077148,4432.179688
1698668562.924583,0.0,4335.128418,4381.794922,4296.922852,4360.0,4401.666504,4410.769043,4427.307617,4480.128418,4432.94873,4383.333496,4426.153809,4243.205078,4424.358887
1698668562.932391,0.0,4329.358887,4390.384766,4290.512695,4362.179688,4403.589844,4414.358887,4429.487305,4474.358887,4435.256348,4385.897461,4423.717773,4220.128418,4426.922852
1698668562.9402,0.0,4328.205078,4390.128418,4292.179688,4359.871582,4404.871582,4413.461426,4429.487305,4477.692383,4431.282227,4380.128418,4421.538574,4204.358887,4426.666504
1698668562.948008,0.0,4328.333496,4387.692383,4291.922852,4358.589844,4404.487305,4411.282227,4430.769043,4482.307617,4435.769043,4385.128418,4421.666504,4206.922852,4426.666504
1698668562.955816,0.0,4333.077148,4393.846191,4288.205078,4359.615234,4405.256348,4414.358887,4435.128418,4476.025879,4435.0,4383.461426,4419.487305,4198.846191,4427.94873
1698668562.963624,0.0,4336.025879,4386.282227,4294.487305,4360.256348,4404.230957,4412.820313,4432.05127,4477.692383,4434.358887,4381.025879,4424.615234,4225.641113,4425.0
1698668562.971433,0.0,4327.563965,4387.820313,4288.589844,4356.538574,4402.307617,4413.205078,4427.94873,4481.538574,4436.410156,4383.333496,4422.94873,4222.820313,4425.641113
1698668562.979241,0.0,4333.333496,4388.589844,4294.102539,4357.05127,4404.230957,4412.179688,4428.333496,4477.179688,4430.897461,4379.102539,4423.077148,4203.461426,4423.974121
1698668562.987049,0.0,4338.077148,4387.05127,4299.230957,4361.025879,4407.436035,4411.025879,4429.615234,4476.922852,4437.05127,4383.846191,4426.410156,4201.666504,4425.512695
1698668562.994857,0.0,4331.922852,4391.153809,4289.230957,4360.128418,4406.025879,4412.436035,4431.666504,4479.358887,4440.512695,4386.538574,4421.922852,4200.512695,4428.461426
1698668563.002665,0.0,4330.512695,4385.256348,4292.94873,4360.128418,4403.846191,4410.256348,4430.512695,4474.487305,4435.128418,4384.487305,4421.666504,4222.179688,4426.025879
1698668563.010474,0.0,4327.692383,4391.794922,4291.922852,4359.743652,4405.897461,4411.025879,4430.128418,4467.94873,4431.666504,4384.871582,4418.846191,4220.512695,4427.692383
1698668563.018282,0.0,4332.692383,4392.179688,4292.692383,4358.589844,4406.153809,4412.692383,4432.436035,4474.358887,4428.077148,4383.461426,4418.333496,4207.692383,4425.769043
1698668563.02609,0.0,4335.384766,4383.717773,4295.128418,4357.94873,4403.461426,4412.692383,4432.307617,4481.025879,4434.871582,4386.025879,4424.230957,4211.666504,4423.461426
1698668563.033898,0.0,4329.102539,4388.717773,4288.974121,4354.615234,4404.358887,4414.743652,4431.666504,4475.769043,4435.384766,4384.487305,4421.666504,4202.05127,4426.153809
1698668563.041706,0.0,4332.820313,4385.769043,4294.743652,4357.436035,4407.05127,4412.307617,4430.512695,4480.0,4431.794922,4385.256348,4417.94873,4212.820313,4423.461426
1698668563.049515,0.0,4333.589844,4391.153809,4291.794922,4361.666504,4406.666504,4412.820313,4433.205078,4485.769043,4437.05127,4389.358887,4415.256348,4214.487305,4425.0
1698668563.057323,0.0,4332.820313,4390.0,4289.358887,4359.871582,4404.615234,4414.102539,4435.512695,4477.307617,4435.512695,4383.077148,4418.589844,4204.871582,4427.94873
1698668563.065131,0.0,4335.128418,4380.641113,4294.615234,4358.846191,4405.384766,4411.282227,4428.846191,4473.846191,4435.512695,4383.717773,4422.94873,4212.436035,4424.871582
1698668563.072939,0.0,4331.794922,4392.179688,4289.358887,4359.358887,4406.410156,4414.102539,4427.179688,4474.615234,4435.769043,4386.153809,4416.538574,4198.846191,4423.077148
1698668563.080747,0.0,4337.05127,4391.410156,4295.769043,4361.922852,4403.974121,4412.05127,4432.692383,4477.692383,4431.794922,4383.717773,4421.922852,4210.512695,4422.692383
1698668563.088556,0.0,4337.436035,4388.205078,4297.436035,4360.0,4406.153809,4409.230957,4432.563965,4480.512695,4435.641113,4384.871582,4427.05127,4223.717773,4427.820313
1698668563.096364,0.0,4330.512695,4389.871582,4291.922852,4355.769043,4406.538574,4411.153809,4428.717773,4478.461426,4434.615234,4383.461426,4419.358887,4202.436035,4426.794922
1698668563.104172,0.0,4330.641113,4383.205078,4294.871582,4359.230957,4401.153809,4411.025879,4428.461426,4478.461426,4434.615234,4385.769043,4419.487305,4205.0,4423.205078
1698668563.11198,0.0,4329.615234,4388.461426,4289.743652,4360.0,4403.974121,4413.589844,4431.153809,4478.205078,4436.666504,4384.615234,4420.256348,4206.538574,4428.205078
1698668563.119789,0.0,4334.871582,4386.922852,4293.974121,4357.179688,4406.922852,4410.128418,4430.128418,4478.846191,4432.692383,4381.410156,4421.922852,4212.05127,4423.333496
1698668563.127597,0.0,4337.05127,4382.179688,4294.743652,4357.307617,4405.512695,4410.0,4428.717773,4478.846191,4433.589844,4387.436035,4421.153809,4215.769043,4422.307617
1698668563.135405,0.0,4331.794922,4386.410156,4287.94873,4359.102539,4407.563965,4414.871582,4431.025879,4477.692383,4432.820313,4387.94873,4417.436035,4198.461426,4429.743652
1698668563.143213,0.0,4330.128418,4383.717773,4293.974121,4359.615234,4405.512695,4410.128418,4432.179688,4478.589844,4435.256348,4386.282227,4421.794922,4206.666504,4428.077148
1698668563.151022,0.0,4328.205078,4388.461426,4292.307617,4356.282227,4401.153809,4409.871582,4431.025879,4477.563965,4437.820313,4385.128418,4420.384766,4208.717773,4428.077148
1698668563.15883,0.0,4333.333496,4389.230957,4293.077148,4357.820313,4402.563965,4412.179688,4429.487305,4479.615234,4432.179688,4382.94873,4420.256348,4210.256348,4431.794922
1698668563.166638,0.0,4334.615234,4386.666504,4294.871582,4358.205078,4404.230957,4410.256348,4430.128418,4480.256348,4434.230957,4387.563965,4422.307617,4214.615234,4432.307617
1698668563.174446,0.0,4328.077148,4391.153809,4290.0,4354.871582,4403.205078,4410.769043,4432.563965,4477.563965,4437.692383,4387.05127,4417.94873,4197.179688,4425.0
1698668563.182254,0.0,4329.102539,4387.436035,4295.769043,4357.820313,4402.307617,4412.563965,4430.641113,4480.769043,4436.538574,4385.384766,4421.025879,4212.179688,4419.358887
1698668563.190063,0.0,4330.0,4395.512695,4291.153809,4359.871582,4404.487305,4416.153809,4430.128418,4479.743652,4435.897461,4386.153809,4422.436035,4223.333496,4428.589844
1698668563.197871,0.0,4331.666504,4395.641113,4290.384766,4358.077148,4407.307617,4414.871582,4431.666504,4476.282227,4432.05127,4382.820313,4422.307617,4205.128418,4429.358887
1698668563.205679,0.0,4330.641113,4383.205078,4297.563965,4358.589844,4405.0,4411.922852,4432.820313,4478.846191,4433.974121,4385.512695,4422.692383,4195.641113,4422.820313
1698668563.213487,0.0,4328.589844,4391.666504,4291.153809,4358.846191,4400.384766,4414.487305,4433.717773,4478.846191,4433.589844,4386.410156,4417.179688,4188.589844,4425.384766
1698668563.221295,0.0,4336.282227,4389.358887,4294.487305,4357.307617,4401.666504,4414.102539,4430.384766,4477.436035,4430.128418,4386.153809,4422.179688,4216.025879,4424.743652
1698668563.229104,0.0,4333.589844,4386.025879,4291.922852,4356.922852,4406.025879,4416.666504,4429.615234,4477.692383,4432.05127,4388.461426,4425.384766,4227.563965,4426.666504
1698668563.236912,0.0,4331.410156,4387.94873,4289.358887,4357.820313,4406.538574,4417.94873,4433.333496,4478.589844,4431.153809,4384.102539,4421.410156,4204.102539,4427.692383
1698668563.24472,0.0,4335.384766,4383.717773,4295.769043,4357.94873,4405.897461,4411.794922,4431.538574,4475.769043,4435.769043,4383.846191,4420.897461,4206.410156,4423.589844
1698668563.252528,0.0,4330.512695,4390.512695,4286.666504,4358.461426,4406.025879,4412.179688,4429.487305,4468.333496,4435.897461,4383.205078,4416.922852,4206.025879,4427.307617
1698668563.260337,0.0,4334.102539,4388.717773,4288.974121,4361.794922,4405.256348,4411.666504,4428.846191,4470.897461,4428.461426,4383.333496,4420.384766,4211.282227,4426.153809
1698668563.268145,0.0,4335.384766,4389.230957,4292.94873,4361.538574,4404.743652,4413.077148,4429.358887,4477.94873,4434.102539,4387.436035,4420.897461,4210.512695,4425.0
1698668563.275953,0.0,4330.384766,4395.769043,4288.717773,4358.333496,4405.256348,4416.666504,4432.307617,4477.563965,4435.897461,4383.461426,4418.205078,4198.205078,4426.025879
1698668563.283761,0.0,4332.563965,4391.282227,4292.820313,4359.871582,4404.230957,4412.820313,4432.436035,4479.230957,4434.102539,4384.358887,4425.897461,4218.333496,4422.307617
1698668563.291569,0.0,4330.128418,4392.436035,4287.179688,4357.94873,4404.615234,4413.333496,4431.410156,4478.205078,4434.743652,4387.307617,4425.0,4217.179688,4423.846191
1698668563.299378,0.0,4327.692383,4388.589844,4291.410156,4358.333496,4405.256348,4414.487305,4430.769043,4476.922852,4433.333496,4384.743652,4424.487305,4203.717773,4424.615234
1698668563.307186,0.0,4326.410156,4390.512695,4295.256348,4361.922852,4406.410156,4412.820313,4429.102539,4479.358887,4436.153809,4385.384766,4424.615234,4203.461426,4425.897461
1698668563.314994,0.0,4329.102539,4395.512695,4290.512695,4357.820313,4406.282227,4413.461426,4429.358887,4477.179688,4434.102539,4383.461426,4419.615234,4197.94873,4427.692383
1698668563.322802,0.0,4337.05127,4383.333496,4299.102539,4357.307617,4400.512695,4411.538574,4430.512695,4478.333496,4432.436035,4385.641113,4424.230957,4217.436035,4422.563965
1698668563.330611,0.0,4332.179688,4387.05127,4293.333496,4359.615234,4400.641113,4414.871582,4431.282227,4476.025879,4435.256348,4386.922852,4423.846191,4214.487305,4423.333496
1698668563.338419,0.0,4333.077148,4390.641113,4289.743652,4359.230957,4406.025879,4414.487305,4429.230957,4473.717773,4432.179688,4382.05127,4420.769043,4202.179688,4425.0
1698668563.346227,0.0,4336.666504,4385.897461,4294.615234,4358.589844,4407.05127,4409.487305,4428.846191,4479.102539,4434.743652,4386.410156,4422.692383,4206.538574,4425.128418
1698668563.354035,0.0,4329.487305,4393.846191,4286.922852,4356.538574,4405.256348,4412.692383,4433.461426,4481.410156,4437.307617,4388.205078,4421.538574,4195.769043,4426.153809
1698668563.361843,0.0,4331.666504,4387.94873,4292.179688,4356.538574,4401.410156,4412.05127,4432.692383,4480.897461,4434.871582,4384.487305,4423.205078,4216.410156,4421.922852
1698668563.369652,0.0,4331.922852,4387.820313,4294.871582,4357.436035,4403.077148,4410.384766,4431.153809,4478.077148,4434.230957,4383.077148,4421.282227,4227.692383,4425.384766
1698668563.37746,0.0,4334.230957,4390.384766,4292.563965,4358.846191,4406.153809,4411.025879,4432.436035,4478.974121,4431.666504,4382.05127,4421.666504,4201.794922,4426.538574
1698668563.385268,0.0,4337.563965,4383.205078,4294.358887,4358.717773,4404.230957,4411.922852,4429.615234,4482.179688,4433.589844,4387.436035,4425.512695,4200.256348,4424.358887
1698668563.393076,0.0,4332.692383,4392.05127,4292.05127,4358.077148,4404.358887,4415.897461,4430.641113,4478.205078,4434.358887,4387.692383,4420.384766,4205.512695,4426.922852
1698668563.400885,0.0,4334.230957,4390.769043,4296.922852,4360.384766,4405.128418,4412.179688,4433.717773,4479.230957,4431.666504,4383.205078,4421.153809,4217.436035,4423.589844
1698668563.408693,0.0,4331.666504,4389.358887,4293.461426,4358.589844,4405.0,4410.384766,4430.512695,4481.025879,4435.256348,4385.0,4422.94873,4210.897461,4425.512695
1698668563.416501,0.0,4328.974121,4393.717773,4294.487305,4355.769043,4405.897461,4412.94873,4428.461426,4475.769043,4432.94873,4384.102539,4422.307617,4197.563965,4428.589844
1698668563.424309,0.0,4332.94873,4385.512695,4300.384766,4358.333496,4403.974121,4411.666504,4430.897461,4477.307617,4430.128418,4383.974121,4425.384766,4218.717773,4424.871582
1698668563.432117,0.0,4332.692383,4389.615234,4292.179688,4360.641113,4400.769043,4413.717773,4432.179688,4478.717773,4430.769043,4383.333496,4420.769043,4213.205078,4426.410156
1698668563.439926,0.0,4332.820313,4389.102539,4294.615234,4361.153809,4403.333496,4412.820313,4429.743652,4477.05127,4429.358887,4382.563965,4421.794922,4202.436035,4424.487305
1698668563.447734,0.0,4329.487305,4389.358887,4293.846191,4356.922852,4407.563965,4412.692383,4430.512695,4478.205078,4433.205078,4385.897461,4426.410156,4204.358887,4425.384766
1698668563.455542,0.0,4329.358887,4393.846191,4292.179688,4353.589844,4405.128418,4413.333496,4431.538574,4477.563965,4432.179688,4384.230957,4422.692383,4199.230957,4428.077148
1698668563.46335,0.0,4334.230957,4382.307617,4298.974121,4357.563965,4400.512695,4409.615234,4428.461426,4478.846191,4430.128418,4383.717773,4422.179688,4220.769043,4420.128418
1698668563.471158,0.0,4330.0,4387.179688,4290.897461,4360.384766,4401.922852,4414.102539,4430.256348,4478.974121,4431.282227,4380.0,4421.794922,4214.615234,4424.102539
1698668563.478967,0.0,4331.794922,4390.384766,4293.205078,4359.230957,4405.897461,4415.384766,4432.436035,4479.358887,4428.717773,4377.563965,4424.358887,4197.179688,4431.153809
1698668563.486775,0.0,4335.0,4384.743652,4298.846191,4360.641113,4407.307617,4411.538574,4430.0,4482.307617,4434.230957,4386.538574,4424.743652,4201.282227,4426.922852
1698668563.494583,0.0,4330.897461,4389.615234,4289.871582,4362.436035,4405.897461,4413.077148,4429.743652,4481.410156,4436.410156,4386.025879,4418.974121,4197.436035,4423.974121
1698668563.502391,0.0,4333.846191,4389.102539,4292.692383,4360.897461,4402.692383,4411.153809,4430.384766,4480.641113,4432.692383,4381.666504,4423.333496,4216.153809,4424.358887
1698668563.5102,0.0,4335.256348,4397.94873,4295.897461,4361.282227,4403.974121,4411.922852,4429.358887,4475.769043,4430.0,4384.615234,4424.743652,4218.846191,4431.922852
1698668563.518008,0.0,4331.538574,4390.641113,4289.743652,4358.717773,4405.512695,4413.974121,4432.05127,4473.846191,4422.820313,4381.282227,4419.230957,4196.538574,4423.461426
1698668563.525816,0.0,4331.410156,4379.871582,4284.871582,4351.794922,4404.358887,4414.358887,4434.743652,4480.897461,4427.179688,4382.179688,4421.410156,4203.205078,4421.794922
1698668563.533624,0.0,4345.256348,4403.461426,4317.307617,4371.666504,4404.743652,4410.512695,4418.333496,4473.461426,4441.666504,4393.461426,4433.846191,4221.794922,4444.358887
1698668563.541433,0.0,4320.512695,4375.897461,4280.0,4351.666504,4403.589844,4417.94873,4435.641113,4476.666504,4424.230957,4369.358887,4411.410156,4189.230957,4401.666504
1698668563.549241,0.0,4319.743652,4390.0,4257.94873,4334.615234,4406.025879,4425.897461,4447.436035,4483.077148,4412.94873,4362.179688,4407.179688,4207.692383,4417.820313
1698668563.557049,0.0,4355.641113,4420.128418,4343.205078,4387.179688,4403.589844,4406.538574,4407.436035,4458.461426,4426.538574,4396.538574,4446.794922,4214.102539,4454.743652
1698668563.564857,0.0,4276.794922,4340.128418,4206.666504,4302.820313,4404.230957,4436.025879,4476.282227,4503.205078,4411.922852,4362.307617,4384.615234,4145.641113,4372.563965
1698668563.572665,0.0,4343.077148,4435.512695,4283.846191,4335.0,4415.512695,4430.256348,4439.230957,4459.230957,4373.077148,4329.358887,4413.077148,4150.769043,4470.256348
1698668563.580474,0.0,4418.461426,4452.563965,4485.641113,4472.94873,4402.307617,4366.025879,4335.769043,4384.871582,4387.94873,4386.025879,4525.256348,4333.974121,4493.974121
1698668563.588282,0.0,4224.358887,4274.102539,4113.974121,4257.692383,4398.846191,4442.307617,4520.641113,4555.256348,4459.358887,4393.717773,4375.769043,4156.410156,4326.666504
1698668563.59609,0.0,4361.794922,4470.769043,4278.717773,4346.153809,4417.05127,4426.538574,4428.717773,4442.179688,4355.384766,4311.153809,4408.846191,3993.718018,4487.94873
1698668563.603898,0.0,4492.307617,4489.230957,4632.436035,4600.769043,4396.153809,4315.384766,4237.436035,4341.538574,4400.0,4423.717773,4623.205078,4559.358887,4532.692383
1698668563.611706,0.0,4232.179688,4226.153809,4139.358887,4341.794922,4386.666504,4404.743652,4464.230957,4611.794922,4612.179688,4517.05127,4426.922852,4248.077148,4322.94873
1698668563.619515,0.0,4280.512695,4352.692383,4103.333496,4305.769043,4406.025879,4437.563965,4474.358887,4535.512695,4503.589844,4382.179688,4325.897461,3798.974365,4393.974121
1698668563.627323,0.0,4386.794922,4422.563965,4348.974121,4440.128418,4403.717773,4388.717773,4373.205078,4444.230957,4474.615234,4409.615234,4460.256348,4322.692383,4460.128418
1698668563.635131,0.0,4302.563965,4343.077148,4203.461426,4349.102539,4404.230957,4421.410156,4448.717773,4550.128418,4555.0,4457.563965,4412.307617,4254.102539,4401.794922
1698668563.642939,0.0,4327.179688,4380.897461,4225.769043,4355.256348,4409.615234,4417.692383,4433.589844,4507.307617,4493.333496,4400.128418,4392.436035,4070.641113,4418.974121
1698668563.650747,0.0,4331.794922,4382.436035,4253.717773,4369.230957,4406.282227,4411.666504,4426.922852,4499.487305,4491.922852,4410.256348,4411.794922,4216.794922,4419.358887
1698668563.658556,0.0,4327.692383,4382.820313,4242.820313,4356.922852,4404.615234,4418.846191,4436.282227,4514.230957,4499.871582,4416.666504,4403.461426,4227.820313,4416.794922
1698668563.666364,0.0,4337.307617,4384.615234,4266.922852,4366.025879,4403.717773,4414.102539,4427.05127,4510.384766,4490.0,4413.717773,4414.743652,4184.487305,4422.692383
1698668563.674172,0.0,4327.179688,4384.230957,4245.769043,4354.487305,4406.282227,4417.94873,4434.358887,4498.846191,4471.794922,4398.333496,4405.384766,4095.384521,4426.282227
1698668563.68198,0.0,4337.820313,4390.384766,4264.871582,4358.717773,4406.410156,4412.563965,4430.897461,4488.717773,4469.871582,4402.436035,4412.563965,4097.179688,4433.077148
1698668563.689789,0.0,4332.436035,4388.717773,4268.846191,4356.282227,4403.717773,4412.307617,4432.307617,4499.487305,4470.128418,4404.230957,4417.179688,4180.0,4430.128418
1698668563.697597,0.0,4331.922852,4390.384766,4263.461426,4353.589844,4404.615234,4414.743652,4433.205078,4489.615234,4445.897461,4385.0,4420.384766,4222.820313,4440.769043
1698668563.705405,0.0,4338.333496,4390.897461,4268.205078,4358.077148,4407.05127,4413.717773,4429.358887,4483.077148,4449.358887,4391.153809,4425.384766,4185.641113,4443.846191
1698668563.713213,0.0,4329.358887,4393.717773,4259.102539,4353.333496,4408.717773,4417.179688,4432.307617,4495.0,4461.153809,4396.153809,4418.077148,4093.846191,4438.589844
1698668563.721022,0.0,4332.820313,4388.974121,4269.615234,4355.128418,4407.179688,4413.846191,4432.436035,4492.692383,4457.179688,4391.025879,4422.05127,4083.333252,4434.871582
1698668563.72883,0.0,4331.794922,4392.05127,4269.102539,4357.436035,4405.512695,4414.358887,4431.794922,4481.153809,4454.871582,4391.282227,4421.794922,4169.743652,4422.94873
1698668563.736638,0.0,4327.05127,4397.692383,4264.358887,4352.563965,4406.922852,4418.974121,4433.205078,4491.025879,4455.384766,4391.153809,4417.563965,4227.563965,4420.384766
1698668563.744446,0.0,4334.743652,4388.333496,4275.0,4355.641113,4408.974121,4414.358887,4430.256348,4493.589844,4446.025879,4386.282227,4419.358887,4197.179688,4425.512695
1698668563.752254,0.0,4332.820313,4390.769043,4262.307617,4354.230957,4408.717773,4414.615234,4434.230957,4478.205078,4438.589844,4382.692383,4414.358887,4106.922852,4426.666504
1698668563.760063,0.0,4333.974121,4396.025879,4267.436035,4353.461426,4404.743652,4415.256348,4435.897461,4481.025879,4443.974121,4384.871582,4417.307617,4079.615479,4422.563965
1698668563.767871,0.0,4333.205078,4392.692383,4273.589844,4356.282227,4405.0,4415.0,4430.641113,4480.128418,4432.563965,4380.0,4420.641113,4160.256348,4425.384766
1698668563.775679,0.0,4329.358887,4393.589844,4263.974121,4353.461426,4408.461426,4417.436035,4430.256348,4476.410156,4420.384766,4376.794922,4420.0,4228.846191,4431.538574
1698668563.783487,0.0,4335.512695,4392.94873,4274.615234,4356.025879,4407.05127,4413.846191,4428.461426,4482.307617,4430.256348,4380.641113,4426.666504,4207.179688,4427.05127
1698668563.791295,0.0,4332.436035,4395.769043,4271.410156,4354.871582,4406.025879,4414.871582,4432.436035,4477.692383,4427.94873,4372.563965,4425.128418,4115.256348,4428.846191
1698668563.799104,0.0,4331.410156,4392.94873,4270.897461,4353.205078,4406.153809,4415.769043,4432.692383,4482.436035,4422.436035,4372.05127,4421.922852,4076.410156,4433.333496
1698668563.806912,0.0,4332.179688,4390.256348,4277.563965,4353.205078,4406.025879,4412.307617,4425.512695,4491.153809,4427.307617,4377.179688,4425.128418,4154.102539,4430.897461
1698668563.81472,0.0,4327.436035,4397.692383,4271.538574,4348.846191,4407.05127,4413.077148,4428.717773,4485.897461,4428.461426,4373.333496,4424.358887,4216.153809,4435.512695
1698668563.822528,0.0,4331.666504,4392.436035,4277.692383,4354.358887,4406.153809,4411.538574,4431.410156,4482.94873,4430.384766,4376.794922,4428.717773,4204.487305,4435.0
1698668563.830336,0.0,4329.871582,4392.820313,4274.871582,4354.871582,4406.153809,4415.256348,4427.05127,4489.358887,4430.641113,4377.436035,4432.179688,4134.487305,4430.512695
1698668563.838145,0.0,4329.615234,4399.743652,4275.256348,4351.922852,4406.666504,4416.538574,4423.589844,4489.487305,4429.871582,4376.794922,4430.256348,4085.384521,4437.820313
1698668563.845953,0.0,4330.897461,4394.102539,4279.743652,4357.307617,4404.230957,4413.077148,4426.794922,4486.153809,4434.743652,4381.666504,4431.666504,4149.615234,4438.974121
1698668563.853761,0.0,4327.692383,4392.94873,4267.436035,4354.615234,4405.128418,4418.461426,4433.974121,4487.563965,4434.230957,4378.589844,4429.230957,4211.410156,4437.692383
1698668563.86157,0.0,4333.846191,4393.333496,4273.846191,4353.846191,4408.077148,4417.05127,4429.615234,4483.205078,4427.179688,4377.820313,4430.641113,4204.102539,4435.769043
1698668563.869378,0.0,4329.743652,4396.410156,4275.128418,4355.512695,4407.94873,4414.102539,4427.179688,4482.307617,4432.563965,4385.512695,4431.666504,4147.563965,4431.153809
1698668563.877186,0.0,4327.94873,4396.922852,4272.563965,4354.102539,4406.538574,4417.307617,4430.128418,4484.102539,4433.461426,4381.538574,4430.256348,4100.0,4437.563965
1698668563.884994,0.0,4335.0,4390.512695,4281.794922,4357.692383,4405.769043,4414.230957,4426.794922,4482.436035,4429.230957,4377.820313,4432.692383,4148.077148,4436.666504
1698668563.892802,0.0,4327.436035,4392.563965,4268.205078,4354.743652,4404.871582,4417.05127,4426.282227,4483.589844,4430.897461,4380.769043,4429.615234,4199.743652,4433.974121
1698668563.900611,0.0,4331.282227,4389.871582,4269.743652,4352.436035,4403.717773,4418.589844,4428.077148,4480.641113,4426.666504,4376.410156,4432.692383,4196.410156,4438.205078
1698668563.908419,0.0,4334.871582,4391.538574,4277.692383,4356.282227,4404.743652,4415.897461,4429.871582,4477.563965,4431.922852,4377.307617,4433.205078,4159.358887,4434.743652
1698668563.916227,0.0,4326.282227,4396.282227,4272.179688,4358.077148,4405.769043,4416.282227,4430.128418,4479.358887,4434.615234,4377.820313,4428.846191,4116.794922,4434.487305
1698668563.924035,0.0,4328.974121,4391.666504,4278.846191,4360.512695,4405.0,4414.615234,4425.384766,4480.769043,4427.436035,4379.230957,4431.794922,4144.102539,4434.230957
1698668563.931843,0.0,4326.666504,4395.897461,4274.615234,4356.922852,4404.102539,4415.897461,4429.743652,4482.563965,4428.589844,4382.820313,4429.102539,4183.333496,4432.307617
1698668563.939652,0.0,4326.282227,4396.922852,4278.333496,4355.897461,4403.461426,4413.717773,4431.538574,4481.922852,4428.077148,4376.794922,4430.384766,4191.282227,4432.820313
1698668563.94746,0.0,4327.436035,4393.846191,4278.974121,4359.230957,4406.153809,4413.974121,4426.410156,4481.282227,4428.846191,4377.436035,4431.666504,4168.846191,4431.666504
1698668563.955268,0.0,4327.692383,4394.615234,4268.461426,4355.384766,4409.615234,4418.077148,4429.743652,4482.692383,4428.077148,4380.128418,4427.94873,4124.743652,4434.487305
1698668563.963076,0.0,4334.487305,4390.0,4280.769043,4356.153809,4407.94873,4413.461426,4431.794922,4480.0,4427.692383,4378.717773,4431.282227,4144.743652,4435.384766
1698668563.970884,0.0,4327.179688,4392.820313,4273.333496,4354.743652,4405.641113,4415.384766,4432.820313,4478.333496,4431.538574,4378.205078,4428.589844,4178.333496,4432.563965
1698668563.978693,0.0,4329.487305,4398.205078,4268.333496,4354.743652,4403.974121,4418.077148,4430.0,4476.666504,4425.256348,4377.94873,4432.692383,4180.897461,4433.846191
1698668563.986501,0.0,4333.205078,4394.615234,4278.974121,4358.077148,4402.692383,4415.128418,4426.410156,4476.282227,4427.94873,4381.538574,4438.974121,4175.256348,4434.871582
1698668563.994309,0.0,4322.94873,4392.179688,4267.820313,4349.358887,4406.025879,4415.641113,4431.282227,4478.205078,4434.871582,4378.205078,4430.0,4141.153809,4433.974121
1698668564.002117,0.0,4330.384766,4391.282227,4272.94873,4351.538574,4407.692383,4412.05127,4428.846191,4473.974121,4426.153809,4377.179688,4431.666504,4144.102539,4433.717773
1698668564.009925,0.0,4331.666504,4396.410156,4276.410156,4357.05127,4406.153809,4412.307617,4427.820313,4472.692383,4423.717773,4382.692383,4436.153809,4170.384766,4434.102539
1698668564.017734,0.0,4325.512695,4396.410156,4274.871582,4354.358887,4407.179688,4413.974121,4432.307617,4479.358887,4427.307617,4378.974121,4434.102539,4172.307617,4431.794922
1698668564.025542,0.0,4328.974121,4390.384766,4280.641113,4355.769043,4405.897461,4411.538574,4429.871582,4480.512695,4430.641113,4379.358887,4432.692383,4171.922852,4429.487305
1698668564.03335,0.0,4328.589844,4395.128418,4266.538574,4352.179688,4405.128418,4415.769043,4430.128418,4477.692383,4430.897461,4381.153809,4428.205078,4152.05127,4430.512695
1698668564.041159,0.0,4329.358887,4393.846191,4270.256348,4352.820313,4407.436035,4415.897461,4429.358887,4477.307617,4426.410156,4376.794922,4435.128418,4146.794922,4430.128418
1698668564.048967,0.0,4327.179688,4394.743652,4276.922852,4357.179688,4407.179688,4415.0,4426.794922,4478.205078,4428.589844,4379.230957,4437.436035,4168.077148,4432.692383
1698668564.056775,0.0,4328.846191,4396.666504,4272.692383,4354.871582,4405.384766,4415.0,4428.974121,4480.256348,4429.102539,4379.230957,4431.282227,4179.230957,4435.256348
1698668564.064583,0.0,4333.717773,4391.538574,4280.769043,4355.256348,4405.897461,4411.666504,4429.871582,4480.256348,4428.461426,4376.410156,4433.846191,4179.743652,4429.615234
1698668564.072391,0.0,4325.769043,4397.307617,4273.461426,4352.692383,4406.922852,4416.922852,4433.077148,4476.153809,4429.230957,4375.897461,4430.0,4148.974121,4427.820313
1698668564.0802,0.0,4328.205078,4393.846191,4276.025879,4355.897461,4404.615234,4416.922852,4431.153809,4473.077148,4424.743652,4378.077148,4431.282227,4134.102539,4432.179688
1698668564.088008,0.0,4331.666504,4392.820313,4279.358887,4359.871582,4404.102539,4412.436035,4426.410156,4473.589844,4428.205078,4382.307617,4433.589844,4166.282227,4433.077148
1698668564.095816,0.0,4328.205078,4396.153809,4270.897461,4353.205078,4406.922852,4416.538574,4430.769043,4476.794922,4430.128418,4376.410156,4426.794922,4184.230957,4428.333496
1698668564.103624,0.0,4332.692383,4387.436035,4280.384766,4353.461426,4407.307617,4415.641113,4430.641113,4479.358887,4428.077148,4375.512695,4430.384766,4181.153809,4426.666504
1698668564.111432,0.0,4325.897461,4394.615234,4271.666504,4353.333496,4406.794922,4415.128418,4431.153809,4477.94873,4427.563965,4381.794922,4430.641113,4148.461426,4431.153809
1698668564.119241,0.0,4325.769043,4396.666504,4272.307617,4355.0,4405.769043,4416.282227,4431.282227,4473.589844,4422.820313,4379.230957,4431.282227,4131.153809,4430.769043
1698668564.127049,0.0,4331.794922,4390.256348,4283.461426,4361.153809,4404.743652,4416.922852,4428.077148,4474.358887,4426.666504,4380.0,4433.077148,4167.692383,4429.871582
1698668564.134857,0.0,4324.487305,4397.436035,4269.358887,4356.025879,4405.384766,4417.692383,4431.666504,4478.461426,4426.282227,4380.0,4425.384766,4183.717773,4431.538574
1698668564.142665,0.0,4327.692383,4395.512695,4273.846191,4355.0,4405.897461,4411.538574,4430.641113,4477.436035,4422.179688,4380.384766,4430.256348,4180.897461,4431.025879
1698668564.150473,0.0,4329.487305,4390.897461,4276.410156,4354.230957,4405.641113,4414.743652,4429.743652,4476.666504,4427.692383,4381.666504,4432.05127,4153.717773,4430.512695
1698668564.158282,0.0,4332.307617,4393.205078,4273.717773,4352.820313,4403.589844,4418.589844,4430.128418,4477.820313,4426.282227,4376.666504,4428.205078,4127.820313,4429.358887
1698668564.16609,0.0,4333.461426,4395.769043,4279.358887,4360.0,4403.589844,4413.589844,4425.641113,4476.282227,4425.641113,4378.717773,4432.307617,4163.461426,4431.153809
1698668564.173898,0.0,4323.333496,4397.307617,4268.717773,4356.538574,4406.666504,4416.410156,4428.333496,4476.922852,4429.102539,4379.230957,4428.846191,4182.307617,4432.563965
1698668564.181706,0.0,4329.871582,4394.871582,4274.743652,4353.333496,4405.897461,4414.358887,4428.205078,4476.282227,4428.974121,4378.333496,4430.128418,4180.256348,4429.102539
1698668564.189515,0.0,4330.641113,4397.179688,4277.307617,4355.512695,4403.974121,4414.230957,4427.563965,4473.589844,4430.384766,4382.563965,4432.94873,4165.0,4430.128418
1698668564.197323,0.0,4324.102539,4394.230957,4269.615234,4353.205078,4406.794922,4419.358887,4431.538574,4477.436035,4429.358887,4379.358887,4430.641113,4132.820313,4431.153809
1698668564.205131,0.0,4328.077148,4388.846191,4274.230957,4356.153809,4406.922852,4415.128418,4428.589844,4479.487305,4430.128418,4378.717773,4432.05127,4154.743652,4430.128418
1698668564.212939,0.0,4326.282227,4398.846191,4267.179688,4355.384766,4406.666504,4414.871582,4427.05127,4476.410156,4429.102539,4378.974121,4426.153809,4180.512695,4428.461426
1698668564.220748,0.0,4331.538574,4400.256348,4276.153809,4354.615234,4408.461426,4416.410156,4426.153809,4477.692383,4426.025879,4378.846191,4430.512695,4179.615234,4426.538574
1698668564.228556,0.0,4332.692383,4395.128418,4279.358887,4354.615234,4407.692383,4415.128418,4427.820313,4478.717773,4431.025879,4384.871582,4436.666504,4162.94873,4429.230957
1698668564.236364,0.0,4329.487305,4396.282227,4266.922852,4353.846191,4406.025879,4413.077148,4432.94873,4476.922852,4430.256348,4381.538574,4428.205078,4136.538574,4429.230957
1698668564.244172,0.0,4333.974121,4393.974121,4275.769043,4359.871582,4405.384766,4409.871582,4429.487305,4477.436035,4426.538574,4378.077148,4428.205078,4155.512695,4426.794922
1698668564.25198,0.0,4330.256348,4395.384766,4268.461426,4356.538574,4407.307617,4416.282227,4430.0,4478.589844,4429.230957,4378.589844,4428.205078,4169.871582,4427.563965
1698668564.259789,0.0,4331.666504,4392.563965,4265.0,4353.205078,4406.153809,4418.205078,4429.871582,4476.794922,4425.641113,4376.922852,4428.717773,4171.025879,4428.589844
1698668564.267597,0.0,4328.717773,4392.820313,4271.153809,4356.922852,4403.333496,4413.205078,4426.410156,4476.794922,4426.410156,4381.666504,4430.897461,4172.94873,4428.589844
1698668564.275405,0.0,4322.179688,4397.05127,4268.205078,4355.641113,4404.871582,4413.974121,4428.077148,4477.820313,4428.589844,4382.692383,4428.205078,4146.538574,4428.205078
1698668564.283213,0.0,4333.333496,4391.410156,4279.487305,4358.974121,4406.153809,4413.333496,4423.846191,4474.743652,4429.487305,4382.05127,4432.94873,4154.871582,4428.333496
1698668564.291021,0.0,4335.256348,4396.794922,4277.307617,4358.589844,4407.563965,4415.0,4424.871582,4475.769043,4432.05127,4380.0,4430.256348,4173.589844,4429.358887
1698668564.29883,0.0,4332.692383,4394.102539,4272.436035,4353.846191,4407.563965,4414.230957,4428.974121,4479.743652,4426.025879,4374.230957,4427.94873,4171.153809,4429.358887
1698668564.306638,0.0,4333.717773,4386.538574,4275.512695,4355.384766,4404.102539,4410.384766,4424.230957,4476.794922,4428.077148,4380.641113,4431.025879,4170.897461,4427.692383
1698668564.314446,0.0,4330.128418,4397.436035,4268.461426,4355.256348,4404.102539,4415.0,4427.179688,4475.384766,4432.179688,4384.358887,4425.256348,4150.128418,4427.563965
1698668564.322254,0.0,4331.666504,4398.077148,4277.307617,4359.230957,4407.692383,4416.153809,4431.282227,4478.077148,4427.05127,4381.538574,4429.743652,4151.025879,4427.307617
1698668564.330063,0.0,4328.333496,4397.307617,4275.256348,4358.077148,4407.307617,4415.897461,4429.871582,4476.153809,4428.461426,4381.666504,4432.692383,4166.282227,4428.717773
1698668564.337871,0.0,4328.205078,4397.436035,4268.974121,4351.025879,4402.563965,4415.384766,4430.512695,4477.307617,4430.256348,4380.0,4428.077148,4172.179688,4427.820313
1698668564.345679,0.0,4331.410156,4392.94873,4278.333496,4355.897461,4402.436035,4412.436035,4430.128418,4483.205078,4431.794922,4382.820313,4430.256348,4177.436035,4426.153809
1698668564.353487,0.0,4324.487305,4392.94873,4269.871582,4355.641113,4406.666504,4415.0,4431.666504,4482.05127,4429.743652,4382.563965,4425.769043,4149.743652,4428.717773
1698668564.361295,0.0,4329.102539,4388.589844,4274.358887,4352.05127,4405.769043,4412.692383,4430.384766,4476.794922,4426.282227,4378.077148,4427.05127,4140.641113,4429.358887
1698668564.369104,0.0,4329.743652,4393.077148,4278.205078,4355.384766,4403.077148,4413.717773,4428.974121,4476.922852,4431.794922,4379.871582,4429.487305,4171.025879,4432.436035
1698668564.376912,0.0,4326.025879,4394.358887,4268.717773,4354.487305,4404.102539,4416.153809,4431.282227,4478.077148,4432.436035,4380.769043,4426.794922,4187.436035,4433.333496
1698668564.38472,0.0,4332.94873,4388.717773,4277.05127,4356.922852,4405.256348,4410.384766,4429.102539,4475.641113,4430.512695,4380.641113,4432.179688,4183.461426,4426.025879
1698668564.392528,0.0,4329.230957,4397.692383,4273.461426,4355.384766,4406.538574,4415.0,4430.384766,4474.358887,4432.05127,4377.307617,4428.974121,4142.692383,4423.717773
1698668564.400337,0.0,4330.769043,4395.128418,4274.102539,4353.717773,4406.538574,4417.179688,4427.179688,4474.487305,4427.563965,4376.922852,4428.461426,4129.358887,4426.922852
1698668564.408145,0.0,4333.205078,4386.794922,4273.589844,4357.820313,4405.641113,4413.461426,4424.230957,4475.128418,4427.05127,4383.717773,4431.922852,4170.512695,4428.077148
1698668564.415953,0.0,4329.358887,4390.512695,4265.769043,4359.102539,4406.538574,4415.256348,4431.410156,4477.94873,4429.615234,4380.641113,4427.05127,4185.897461,4427.307617
1698668564.423761,0.0,4333.077148,4390.384766,4279.487305,4361.666504,4405.128418,4412.94873,4428.461426,4477.692383,4430.897461,4379.102539,4430.0,4178.205078,4428.717773
1698668564.431569,0.0,4328.974121,4391.794922,4273.846191,4356.282227,4403.974121,4415.384766,4425.512695,4477.436035,4431.666504,4383.717773,4428.846191,4147.94873,4429.871582
1698668564.439378,0.0,4331.538574,4391.282227,4270.0,4352.05127,4405.641113,4416.025879,4430.384766,4477.692383,4427.436035,4379.487305,4427.820313,4130.0,4426.794922
1698668564.447186,0.0,4330.769043,4390.641113,4278.717773,4355.0,4406.666504,4412.563965,4432.692383,4473.589844,4429.615234,4380.769043,4428.461426,4163.077148,4426.538574
1698668564.454994,0.0,4323.974121,4395.769043,4269.743652,4353.846191,4405.256348,4414.358887,4431.794922,4475.769043,4431.410156,4380.641113,4422.179688,4178.846191,4429.743652
1698668564.462802,0.0,4333.846191,4390.128418,4275.512695,4356.922852,4405.128418,4412.94873,4423.974121,4478.461426,4427.436035,4376.025879,4429.230957,4177.692383,4429.487305
1698668564.470611,0.0,4330.512695,4389.615234,4274.230957,4355.897461,4406.794922,4414.102539,4425.641113,4475.769043,4429.743652,4378.461426,4428.846191,4157.436035,4428.205078
1698668564.478419,0.0,4327.05127,4394.743652,4271.153809,4356.025879,4406.153809,4413.205078,4429.871582,4478.974121,4430.256348,4379.871582,4422.94873,4137.307617,4426.794922
1698668564.486227,0.0,4333.846191,4395.0,4274.743652,4361.282227,4407.179688,4409.743652,4424.358887,4480.0,4431.666504,4381.794922,4429.743652,4165.0,4427.179688
1698668564.494035,0.0,4327.05127,4395.641113,4264.358887,4357.94873,4410.128418,4415.384766,4426.666504,4477.436035,4430.641113,4379.230957,4425.897461,4174.358887,4427.692383
1698668564.501843,0.0,4328.205078,4390.769043,4276.666504,4358.974121,4407.307617,4414.102539,4426.922852,4475.641113,4425.769043,4378.846191,4425.769043,4168.717773,4427.436035
1698668564.509652,0.0,4329.871582,4394.487305,4275.769043,4359.358887,4404.230957,4414.102539,4426.025879,4475.641113,4429.102539,4384.615234,4428.589844,4161.922852,4430.641113
1698668564.51746,0.0,4330.0,4392.563965,4262.436035,4354.871582,4406.538574,4416.666504,4431.794922,4477.94873,4428.205078,4381.538574,4424.102539,4149.743652,4430.384766
1698668564.525268,0.0,4335.897461,4384.871582,4275.0,4358.717773,4407.94873,4410.0,4430.0,4477.692383,4428.589844,4382.820313,4425.128418,4167.692383,4428.589844
1698668564.533076,0.0,4329.230957,4395.0,4271.794922,4356.794922,4405.641113,4412.05127,4429.358887,4476.538574,4431.922852,4385.256348,4425.384766,4164.743652,4428.846191
1698668564.540884,0.0,4331.282227,4394.615234,4275.512695,4357.307617,4403.589844,4415.769043,4428.461426,4477.307617,4427.94873,4380.769043,4427.179688,4156.666504,4425.769043
1698668564.548693,0.0,4334.871582,4392.820313,4281.794922,4362.94873,4405.256348,4415.0,4426.282227,4477.94873,4431.025879,4379.615234,4424.102539,4168.974121,4428.077148
1698668564.556501,0.0,4328.333496,4394.871582,4268.461426,4354.358887,4407.94873,4414.230957,4431.025879,4476.794922,4431.410156,4379.487305,4420.769043,4163.717773,4431.538574
1698668564.564309,0.0,4330.512695,4389.102539,4272.436035,4352.179688,4407.179688,4409.487305,4430.256348,4474.871582,4427.307617,4381.922852,4427.94873,4166.153809,4429.102539
1698668564.572117,0.0,4330.641113,4393.974121,4275.256348,4354.615234,4407.692383,4413.461426,4429.615234,4475.384766,4427.820313,4380.641113,4423.846191,4153.077148,4427.05127
1698668564.579926,0.0,4331.922852,4393.846191,4276.922852,4354.230957,4407.307617,4413.846191,4431.922852,4477.436035,4425.256348,4375.641113,4424.358887,4146.025879,4425.384766
1698668564.587734,0.0,4332.05127,4390.641113,4273.974121,4357.05127,4404.871582,4408.717773,4431.410156,4477.820313,4427.307617,4382.307617,4430.0,4167.692383,4426.794922
1698668564.595542,0.0,4329.230957,4392.820313,4263.846191,4355.0,4406.153809,4414.358887,4430.769043,4477.05127,4429.487305,4384.615234,4424.102539,4167.820313,4428.077148
1698668564.60335,0.0,4332.820313,4389.358887,4276.922852,4357.692383,4407.179688,4414.102539,4424.615234,4476.153809,4428.077148,4381.666504,4426.794922,4170.769043,4427.436035
1698668564.611158,0.0,4327.820313,4391.666504,4274.487305,4355.128418,4406.666504,4411.153809,4426.666504,4475.384766,4429.102539,4382.563965,4425.384766,4161.025879,4428.077148
1698668564.618967,0.0,4330.384766,4392.94873,4268.461426,4350.769043,4407.179688,4413.205078,4431.282227,4477.307617,4428.333496,4382.692383,4423.333496,4151.666504,4426.538574
1698668564.626775,0.0,4333.717773,4390.128418,4277.307617,4356.922852,4406.282227,4413.846191,4426.922852,4478.333496,4431.794922,4386.025879,4429.358887,4172.05127,4428.077148
1698668564.634583,0.0,4325.897461,4394.358887,4273.077148,4354.230957,4405.512695,4414.743652,4428.077148,4476.794922,4432.692383,4381.794922,4424.487305,4162.94873,4429.615234
1698668564.642391,0.0,4330.641113,4394.230957,4281.025879,4354.230957,4406.666504,4413.461426,4425.256348,4478.205078,4429.358887,4377.820313,4424.102539,4158.077148,4425.512695
1698668564.6502,0.0,4328.974121,4392.436035,4276.666504,4355.128418,4405.897461,4415.512695,4424.487305,4478.717773,4431.538574,4382.05127,4425.0,4162.820313,4424.743652
1698668564.658008,0.0,4327.563965,4390.512695,4267.94873,4351.922852,4405.128418,4413.589844,4430.897461,4478.589844,4431.153809,4378.589844,4422.94873,4152.692383,4427.820313
1698668564.665816,0.0,4332.179688,4390.0,4277.692383,4355.512695,4405.384766,4409.743652,4429.102539,4481.153809,4433.333496,4381.794922,4426.282227,4164.487305,4426.794922
1698668564.673624,0.0,4323.589844,4398.333496,4271.410156,4354.615234,4405.256348,4416.025879,4429.230957,4479.871582,4433.717773,4385.256348,4422.563965,4165.384766,4425.769043
1698668564.681432,0.0,4329.230957,4394.615234,4276.025879,4354.487305,4404.358887,4415.0,4429.230957,4474.615234,4428.846191,4380.897461,4424.615234,4167.692383,4428.205078
1698668564.689241,0.0,4336.410156,4390.897461,4278.974121,4355.128418,4406.922852,4413.589844,4428.974121,4475.0,4430.897461,4381.538574,4426.410156,4165.128418,4429.871582
1698668564.697049,0.0,4332.05127,4393.461426,4273.461426,4357.179688,4408.077148,4415.769043,4432.05127,4479.102539,4429.230957,4381.666504,4421.025879,4147.692383,4426.794922
1698668564.704857,0.0,4330.384766,4388.333496,4278.717773,4362.179688,4403.205078,4410.128418,4429.615234,4477.94873,4429.358887,4382.94873,4426.410156,4166.410156,4426.410156
1698668564.712665,0.0,4324.743652,4392.436035,4266.666504,4356.025879,4404.102539,4412.179688,4427.563965,4477.05127,4431.794922,4382.563965,4425.641113,4169.743652,4429.102539
1698668564.720473,0.0,4330.256348,4391.922852,4271.922852,4355.769043,4408.717773,4414.358887,4428.461426,4478.205078,4426.922852,4377.94873,4424.615234,4160.128418,4427.05127
1698668564.728282,0.0,4334.102539,4390.128418,4279.230957,4360.384766,4406.666504,4412.05127,4431.922852,4477.307617,4429.615234,4379.743652,4427.05127,4165.641113,4428.077148
1698668564.73609,0.0,4328.077148,4393.333496,4266.282227,4355.256348,4404.615234,4413.846191,4434.615234,4477.692383,4432.563965,4380.512695,4422.563965,4153.333496,4431.410156
1698668564.743898,0.0,4331.153809,4391.025879,4274.743652,4356.538574,4406.538574,4411.025879,4429.102539,4479.102539,4430.769043,4381.666504,4426.025879,4160.641113,4429.871582
1698668564.751706,0.0,4330.0,4393.333496,4275.0,4356.922852,4406.666504,4414.358887,4428.974121,4479.102539,4430.769043,4382.692383,4425.769043,4165.769043,4427.05127
1698668564.759515,0.0,4329.871582,4391.025879,4270.128418,4353.589844,4406.666504,4415.641113,4429.230957,4476.666504,4429.358887,4381.153809,4426.153809,4158.077148,4426.153809
1698668564.767323,0.0,4329.487305,4390.769043,4272.436035,4357.179688,4408.077148,4411.538574,4423.461426,4476.025879,4432.692383,4383.589844,4430.0,4167.179688,4430.641113
1698668564.775131,0.0,4326.410156,4391.794922,4266.153809,4355.0,4405.512695,4416.025879,4427.307617,4481.410156,4432.05127,4380.384766,4423.974121,4163.461426,4432.692383
1698668564.782939,0.0,4333.717773,4383.846191,4273.717773,4354.102539,4401.410156,4414.615234,4427.692383,4481.666504,4429.358887,4378.589844,4426.666504,4165.897461,4427.692383
1698668564.790748,0.0,4329.615234,4392.436035,4273.846191,4357.179688,4406.153809,4412.820313,4425.128418,4476.794922,4433.333496,4383.205078,4427.179688,4161.666504,4423.077148
1698668564.798556,0.0,4326.794922,4398.589844,4273.717773,4354.358887,4409.230957,4415.256348,4429.743652,4480.256348,4431.025879,4382.179688,4422.05127,4153.974121,4423.589844
1698668564.806364,0.0,4331.666504,4389.743652,4280.128418,4355.0,4404.487305,4415.512695,4431.025879,4482.05127,4429.358887,4383.974121,4424.358887,4168.589844,4428.974121
1698668564.814172,0.0,4325.0,4392.05127,4268.589844,4355.897461,4405.256348,4416.538574,4431.153809,4478.589844,4431.794922,4381.538574,4423.461426,4159.615234,4428.974121
1698668564.82198,0.0,4328.077148,4392.820313,4275.0,4357.692383,4408.077148,4411.666504,4425.0,4476.794922,4430.128418,4377.820313,4427.94873,4158.717773,4425.128418
1698668564.829789,0.0,4328.205078,4392.179688,4276.410156,4354.615234,4406.666504,4412.436035,4425.0,4474.102539,4430.128418,4378.333496,4427.179688,4168.974121,4426.282227
1698668564.837597,0.0,4328.333496,4392.692383,4268.717773,4351.410156,4405.769043,4416.410156,4433.333496,4475.769043,4428.205078,4375.0,4420.512695,4165.512695,4425.897461
1698668564.845405,0.0,4337.94873,4389.487305,4278.717773,4357.436035,4406.025879,4413.077148,4427.05127,4480.897461,4430.769043,4381.025879,4424.743652,4175.384766,4425.897461
1698668564.853213,0.0,4332.179688,4393.846191,4270.897461,4354.102539,4406.282227,4415.128418,4424.230957,4480.897461,4433.333496,4384.871582,4422.563965,4154.615234,4428.846191
1698668564.861021,0.0,4330.0,4391.153809,4272.05127,4353.846191,4406.025879,4414.615234,4431.538574,4476.410156,4428.077148,4380.769043,4424.102539,4147.307617,4427.94873
1698668564.86883,0.0,4331.666504,4387.820313,4278.333496,4357.179688,4404.871582,4413.461426,4431.922852,4475.641113,4431.153809,4385.128418,4430.512695,4161.666504,4426.794922
1698668564.876638,0.0,4330.641113,4391.538574,4271.410156,4355.641113,4403.333496,4416.410156,4428.205078,4480.0,4433.077148,4385.0,4429.102539,4174.743652,4426.410156
1698668564.884446,0.0,4331.666504,4390.128418,4276.794922,4361.025879,4404.102539,4413.333496,4427.05127,4477.307617,4429.102539,4380.256348,4430.256348,4184.102539,4431.922852
1698668564.892254,0.0,4326.794922,4392.179688,4270.641113,4357.436035,4405.897461,4415.769043,4432.05127,4473.589844,4430.256348,4379.743652,4423.461426,4117.820313,4430.897461
1698668564.900062,0.0,4337.820313,4383.077148,4283.077148,4356.922852,4405.641113,4410.897461,4426.922852,4481.538574,4436.794922,4386.410156,4426.153809,4159.871582,4413.717773
1698668564.907871,0.0,4341.282227,4377.94873,4295.128418,4365.512695,4406.794922,4401.666504,4416.538574,4480.256348,4441.922852,4388.205078,4437.179688,4253.589844,4423.589844
1698668564.915679,0.0,4324.871582,4392.692383,4267.692383,4360.128418,4408.077148,4411.025879,4422.563965,4479.358887,4436.025879,4377.307617,4425.128418,4205.769043,4438.717773
1698668564.923487,0.0,4326.666504,4393.717773,4267.820313,4357.436035,4405.0,4415.769043,4427.436035,4488.846191,4434.871582,4381.025879,4423.205078,4192.05127,4427.05127
1698668564.931296,0.0,4328.333496,4392.436035,4272.820313,4360.0,4405.897461,4412.692383,4426.922852,4485.384766,4438.461426,4383.461426,4428.589844,4251.282227,4424.615234
1698668564.939104,0.0,4324.615234,4394.230957,4266.025879,4357.307617,4406.666504,4411.794922,4428.717773,4480.769043,4435.256348,4373.461426,4421.922852,4281.794922,4424.743652
1698668564.946912,0.0,4328.077148,4393.205078,4269.743652,4358.589844,4403.205078,4412.820313,4427.94873,4485.128418,4437.307617,4377.692383,4420.256348,4240.256348,4424.487305
1698668564.95472,0.0,4328.461426,4395.769043,4263.846191,4355.897461,4405.384766,4417.563965,4430.769043,4486.666504,4437.820313,4381.282227,4418.589844,4169.871582,4427.307617
1698668564.962528,0.0,4331.153809,4391.922852,4272.179688,4356.025879,4407.692383,4414.871582,4427.436035,4485.769043,4437.307617,4379.230957,4422.563965,4178.717773,4422.307617
1698668564.970337,0.0,4325.641113,4394.487305,4273.846191,4357.563965,4406.538574,4412.94873,4425.256348,4484.102539,4442.307617,4381.538574,4422.820313,4241.282227,4425.128418
1698668564.978145,0.0,4326.538574,4393.974121,4267.436035,4353.461426,4404.871582,4413.077148,4428.077148,4483.333496,4438.589844,4380.384766,4419.615234,4276.025879,4428.333496
1698668564.985953,0.0,4335.897461,4389.487305,4274.230957,4356.282227,4402.820313,4412.179688,4424.487305,4484.358887,4437.692383,4380.256348,4425.0,4249.615234,4424.487305
1698668564.993761,0.0,4327.307617,4395.769043,4269.102539,4353.461426,4402.563965,4415.256348,4428.205078,4485.512695,4440.897461,4379.358887,4423.077148,4178.461426,4424.743652
1698668565.001569,0.0,4327.820313,4391.410156,4272.307617,4352.05127,4404.743652,4409.743652,4430.512695,4486.666504,4437.436035,4378.846191,4424.487305,4164.102539,4427.436035
1698668565.009378,0.0,4330.769043,4390.769043,4271.922852,4356.282227,4406.794922,4407.692383,4427.692383,4488.205078,4440.256348,4383.461426,4424.743652,4233.589844,4426.538574
1698668565.017186,0.0,4327.820313,4396.538574,4266.025879,4354.615234,4406.922852,4415.512695,4428.717773,4484.743652,4443.333496,4382.307617,4421.025879,4285.897461,4425.769043
1698668565.024994,0.0,4329.871582,4391.282227,4276.410156,4356.922852,4404.487305,4413.974121,4427.563965,4480.897461,4440.769043,4381.025879,4428.333496,4256.410156,4424.871582
1698668565.032802,0.0,4324.615234,4392.820313,4271.666504,4354.358887,4403.461426,4415.384766,4429.615234,4482.05127,4438.974121,4384.230957,4427.436035,4167.820313,4425.512695
1698668565.04061,0.0,4328.205078,4395.256348,4273.717773,4353.846191,4405.384766,4418.461426,4429.615234,4483.205078,4436.922852,4385.512695,4424.615234,4145.897461,4428.974121
1698668565.048419,0.0,4328.077148,4393.974121,4276.922852,4356.282227,4407.05127,4413.846191,4427.820313,4483.205078,4439.230957,4385.897461,4426.666504,4223.077148,4427.563965
1698668565.056227,0.0,4322.820313,4391.922852,4266.153809,4352.179688,4407.307617,4412.94873,4429.615234,4483.717773,4438.846191,4383.205078,4425.512695,4275.641113,4424.743652
1698668565.064035,0.0,4331.410156,4387.820313,4275.641113,4354.358887,4406.282227,4412.307617,4426.410156,4483.333496,4439.615234,4387.179688,4427.05127,4256.666504,4427.692383
1698668565.071843,0.0,4328.205078,4393.974121,4275.641113,4354.743652,4407.692383,4412.692383,4427.692383,4481.794922,4442.94873,4389.230957,4422.05127,4188.717773,4427.179688
1698668565.079651,0.0,4326.153809,4395.512695,4273.333496,4353.974121,4407.563965,4411.538574,4432.179688,4477.05127,4438.461426,4379.615234,4422.05127,4150.897461,4423.077148
1698668565.08746,0.0,4328.205078,4393.333496,4277.563965,4357.563965,4404.487305,4414.230957,4429.102539,4474.487305,4440.128418,4380.384766,4423.205078,4212.94873,4422.563965
1698668565.095268,0.0,4324.230957,4395.256348,4268.589844,4354.871582,4403.589844,4420.769043,4428.589844,4481.282227,4441.282227,4383.205078,4417.179688,4275.769043,4424.230957
1698668565.103076,0.0,4331.922852,4387.820313,4276.922852,4355.384766,4403.846191,4413.846191,4429.358887,4485.256348,4434.871582,4381.922852,4423.846191,4267.436035,4423.846191
1698668565.110885,0.0,4333.589844,4393.846191,4276.538574,4356.025879,4405.384766,4413.974121,4429.487305,4481.025879,4438.846191,4386.025879,4427.05127,4195.256348,4422.94873
1698668565.118693,0.0,4329.743652,4398.717773,4270.384766,4354.871582,4406.410156,4419.230957,4428.333496,4481.025879,4442.436035,4386.282227,4423.589844,4143.717773,4422.94873
1698668565.126501,0.0,4328.333496,4388.846191,4275.0,4356.153809,4405.0,4414.102539,4426.025879,4483.461426,4442.692383,4388.589844,4424.487305,4206.025879,4423.974121
1698668565.134309,0.0,4323.333496,4392.179688,4269.743652,4351.666504,4404.615234,4412.563965,4430.128418,4483.205078,4441.538574,4387.692383,4419.743652,4274.358887,4425.384766
1698668565.142117,0.0,4328.333496,4393.974121,4277.179688,4353.589844,4405.769043,4412.436035,4429.102539,4482.179688,4438.077148,4384.358887,4420.897461,4270.384766,4422.692383
1698668565.149926,0.0,4328.461426,4393.974121,4275.128418,4356.538574,4406.538574,4414.102539,4427.820313,4482.307617,4440.641113,4387.307617,4422.05127,4206.282227,4420.256348
1698668565.157734,0.0,4327.820313,4393.846191,4269.358887,4352.820313,4406.666504,4415.256348,4430.641113,4482.307617,4437.179688,4385.769043,4421.282227,4146.153809,4425.256348
1698668565.165542,0.0,4332.436035,4390.641113,4280.641113,4356.538574,4405.641113,4413.974121,4426.922852,4482.179688,4436.282227,4388.077148,4425.128418,4196.666504,4427.94873
1698668565.17335,0.0,4326.153809,4393.077148,4272.436035,4355.512695,4404.743652,4418.589844,4430.128418,4482.820313,4439.358887,4388.717773,4417.692383,4264.615234,4423.205078
1698668565.181158,0.0,4326.538574,4390.512695,4273.077148,4354.871582,4404.743652,4415.0,4431.538574,4483.077148,4435.384766,4381.282227,4419.871582,4272.05127,4421.410156
1698668565.188967,0.0,4329.358887,4392.436035,4276.410156,4357.94873,4405.897461,4412.307617,4427.563965,4484.230957,4434.743652,4383.589844,4429.230957,4216.410156,4426.666504
1698668565.196775,0.0,4329.871582,4390.256348,4267.563965,4354.871582,4405.512695,4418.205078,4432.436035,4484.615234,4434.743652,4385.769043,4424.102539,4146.794922,4426.794922
1698668565.204583,0.0,4335.641113,4384.487305,4273.589844,4357.692383,4402.563965,4415.256348,4430.0,4481.922852,4437.307617,4385.897461,4422.94873,4187.05127,4422.05127
1698668565.212391,0.0,4328.461426,4393.077148,4267.307617,4357.307617,4404.615234,4412.179688,4428.205078,4481.410156,4437.05127,4386.410156,4423.461426,4262.436035,4421.282227
1698668565.220199,0.0,4326.794922,4394.102539,4271.538574,4354.358887,4408.333496,4412.179688,4432.307617,4482.692383,4430.0,4384.358887,4425.384766,4273.846191,4423.333496
1698668565.228008,0.0,4328.846191,4391.922852,4281.282227,4356.282227,4406.922852,4413.717773,4430.769043,4483.461426,4436.153809,4386.794922,4422.692383,4227.94873,4424.743652
1698668565.235816,0.0,4323.717773,4394.102539,4270.0,4353.846191,4403.333496,4415.384766,4429.358887,4483.333496,4441.538574,4386.794922,4415.0,4171.282227,4421.794922
1698668565.243624,0.0,4330.256348,4387.563965,4275.256348,4355.256348,4402.436035,4410.0,4427.820313,4479.615234,4436.282227,4388.589844,4423.717773,4196.538574,4419.102539
1698668565.251432,0.0,4332.820313,4388.717773,4276.794922,4354.871582,4406.666504,4412.436035,4429.871582,4479.102539,4435.769043,4389.487305,4426.666504,4242.179688,4422.179688
1698668565.259241,0.0,4333.077148,4392.436035,4275.897461,4354.102539,4407.820313,4415.641113,4428.589844,4484.871582,4435.512695,4383.077148,4421.410156,4254.487305,4423.846191
1698668565.267049,0.0,4331.922852,4390.0,4277.563965,4357.307617,4404.230957,4414.230957,4425.641113,4484.615234,4436.922852,4387.436035,4422.563965,4237.820313,4423.205078
1698668565.274857,0.0,4326.410156,4393.589844,4268.589844,4353.717773,4406.666504,4415.384766,4429.743652,4479.615234,4436.410156,4387.820313,4420.897461,4183.461426,4424.102539
1698668565.282665,0.0,4334.358887,4390.128418,4278.974121,4355.128418,4408.461426,4411.282227,4427.94873,4480.384766,4434.102539,4380.897461,4422.94873,4179.743652,4425.0
1698668565.290474,0.0,4332.563965,4389.871582,4275.769043,4355.641113,4405.0,4412.692383,4427.563965,4483.205078,4437.307617,4382.692383,4420.128418,4231.282227,4427.563965
1698668565.298282,0.0,4328.077148,4393.589844,4268.589844,4352.563965,4405.897461,4416.410156,4430.769043,4483.846191,4436.025879,4386.538574,4420.256348,4266.538574,4426.666504
1698668565.30609,0.0,4330.512695,4388.974121,4277.563965,4355.897461,4407.94873,4411.282227,4427.692383,4484.230957,4438.333496,4391.025879,4428.589844,4248.461426,4420.384766
1698668565.313898,0.0,4326.153809,4391.538574,4267.179688,4353.846191,4407.307617,4412.820313,4427.820313,4483.333496,4438.974121,4388.077148,4421.282227,4177.94873,4419.615234
1698668565.321706,0.0,4332.05127,4391.538574,4270.641113,4353.461426,4405.897461,4412.436035,4427.820313,4480.384766,4432.179688,4382.436035,4420.384766,4170.384766,4425.0
1698668565.329515,0.0,4331.410156,4392.436035,4275.769043,4358.205078,4406.025879,4410.641113,4428.846191,4480.128418,4433.205078,4383.846191,4426.410156,4233.461426,4426.282227
1698668565.337323,0.0,4326.025879,4391.922852,4268.974121,4358.846191,4406.922852,4413.846191,4431.025879,4481.794922,4432.179688,4382.307617,4423.589844,4267.563965,4422.820313
1698668565.345131,0.0,4330.0,4384.487305,4276.025879,4359.487305,4405.641113,4413.717773,4426.025879,4477.692383,4432.692383,4386.153809,4426.538574,4250.641113,4423.461426
1698668565.352939,0.0,4326.410156,4391.922852,4270.256348,4357.692383,4404.358887,4416.922852,4427.563965,4477.820313,4438.077148,4387.563965,4425.384766,4188.205078,4426.025879
1698668565.360747,0.0,4330.512695,4393.717773,4272.692383,4357.820313,4404.358887,4412.179688,4429.358887,4483.333496,4434.102539,4381.794922,4426.538574,4161.282227,4421.538574
1698668565.368556,0.0,4333.077148,4391.794922,4277.94873,4355.384766,4406.153809,4406.666504,4426.282227,4481.410156,4434.358887,4384.743652,4427.307617,4219.358887,4421.153809
1698668565.376364,0.0,4328.717773,4394.358887,4272.94873,4349.487305,4406.794922,4414.743652,4430.128418,4480.512695,4437.307617,4386.794922,4419.230957,4274.230957,4424.743652
1698668565.384172,0.0,4334.487305,4390.256348,4281.410156,4354.487305,4405.769043,4416.666504,4429.615234,4480.512695,4435.256348,4387.05127,4422.692383,4262.94873,4423.333496
1698668565.39198,0.0,4329.358887,4392.692383,4275.769043,4354.487305,4406.282227,4415.256348,4428.846191,4479.230957,4432.692383,4385.641113,4423.589844,4186.025879,4423.846191
1698668565.399789,0.0,4327.436035,4393.846191,4275.897461,4352.692383,4405.256348,4413.077148,4430.0,4481.410156,4429.743652,4381.794922,4422.436035,4141.666504,4426.410156
1698668565.407597,0.0,4332.820313,4394.230957,4281.538574,4357.692383,4404.871582,4411.025879,4428.077148,4481.153809,4435.641113,4387.94873,4422.307617,4213.846191,4426.025879
1698668565.415405,0.0,4327.692383,4393.077148,4269.615234,4353.077148,4406.410156,4414.102539,4430.384766,4479.230957,4437.692383,4388.589844,4418.461426,4289.102539,4422.307617
1698668565.423213,0.0,4327.94873,4385.512695,4275.512695,4355.128418,4406.922852,4412.94873,4430.0,4479.871582,4432.94873,4382.05127,4425.128418,4276.538574,4420.256348
1698668565.431021,0.0,4326.025879,4389.615234,4274.487305,4357.692383,4407.05127,4413.333496,4430.128418,4480.384766,4435.384766,4384.230957,4425.128418,4188.589844,4421.666504
1698668565.43883,0.0,4328.717773,4393.717773,4270.0,4352.94873,4406.282227,4413.077148,4430.0,4480.769043,4436.025879,4386.538574,4421.025879,4131.538574,4423.974121
1698668565.446638,0.0,4335.384766,4392.05127,4277.179688,4357.692383,4406.538574,4410.0,4428.461426,4483.974121,4435.256348,4387.05127,4423.717773,4206.538574,4426.666504
1698668565.454446,0.0,4326.922852,4393.974121,4268.717773,4358.333496,4409.743652,4413.717773,4433.461426,4483.589844,4434.743652,4385.641113,4420.256348,4288.589844,4423.205078
1698668565.462254,0.0,4327.307617,4388.846191,4274.230957,4356.025879,4408.077148,4413.205078,4430.641113,4479.743652,4436.153809,4385.256348,4423.077148,4280.256348,4418.461426
1698668565.470063,0.0,4330.641113,4390.769043,4279.487305,4357.05127,4402.94873,4411.666504,4428.333496,4479.743652,4440.384766,4386.410156,4422.820313,4207.05127,4424.230957
1698668565.477871,0.0,4330.384766,4395.128418,4270.0,4355.897461,4403.589844,4413.717773,4432.307617,4483.717773,4437.563965,4383.846191,4417.94873,4146.922852,4426.025879
1698668565.485679,0.0,4329.743652,4390.0,4272.436035,4356.794922,4406.922852,4412.692383,4428.717773,4483.333496,4436.153809,4385.897461,4424.102539,4198.974121,4421.922852
1698668565.493487,0.0,4323.589844,4393.589844,4268.846191,4354.358887,4407.563965,4414.615234,4431.538574,4481.282227,4437.820313,4387.307617,4423.461426,4267.436035,4423.077148
1698668565.501295,0.0,4328.846191,4392.05127,4274.487305,4353.974121,4404.102539,4411.794922,4435.128418,4481.922852,4435.641113,4385.897461,4422.94873,4272.820313,4421.282227
1698668565.509104,0.0,4328.846191,4390.384766,4278.205078,4355.0,4402.05127,4410.512695,4430.384766,4478.974121,4435.128418,4388.461426,4424.102539,4219.743652,4420.128418
1698668565.516912,0.0,4325.0,4394.358887,4269.358887,4354.487305,4406.025879,4415.897461,4428.205078,4479.358887,4435.384766,4386.922852,4418.717773,4156.153809,4422.94873
1698668565.52472,0.0,4330.641113,4390.0,4272.307617,4360.0,4406.794922,4414.358887,4427.307617,4482.563965,4436.282227,4386.922852,4423.589844,4192.94873,4421.410156
1698668565.532528,0.0,4327.436035,4393.846191,4268.205078,4358.974121,4404.615234,4414.743652,4430.384766,4481.153809,4435.641113,4386.153809,4423.974121,4255.897461,4418.846191
1698668565.540336,0.0,4328.717773,4395.641113,4273.077148,4355.384766,4406.666504,4414.230957,4430.897461,4479.871582,4432.05127,4381.153809,4420.897461,4267.692383,4420.256348
1698668565.548145,0.0,4330.128418,4393.461426,4275.128418,4355.128418,4410.0,4412.692383,4429.230957,4480.384766,4437.692383,4383.461426,4424.871582,4230.384766,4424.487305
1698668565.555953,0.0,4326.025879,4394.487305,4265.128418,4354.871582,4408.461426,4415.512695,4432.307617,4480.512695,4439.871582,4386.794922,4425.769043,4171.282227,4423.077148
1698668565.563761,0.0,4329.358887,4389.358887,4277.05127,4360.256348,4406.025879,4412.05127,4429.615234,4478.974121,4434.358887,4387.05127,4426.666504,4192.94873,4419.743652
1698668565.571569,0.0,4325.0,4390.256348,4274.358887,4357.563965,4406.666504,4412.692383,4428.461426,4480.641113,4435.512695,4385.769043,4421.922852,4243.461426,4420.897461
1698668565.579378,0.0,4323.846191,4388.717773,4270.512695,4352.692383,4404.743652,4414.487305,4429.358887,4482.692383,4436.538574,4385.512695,4422.94873,4256.282227,4419.871582
1698668565.587186,0.0,4329.102539,4388.077148,4279.102539,4356.538574,4403.333496,4411.153809,4427.307617,4480.769043,4438.461426,4388.461426,4428.846191,4235.769043,4419.358887
1698668565.594994,0.0,4326.153809,4395.641113,4269.230957,4354.615234,4406.666504,4413.846191,4431.410156,4481.153809,4438.589844,4382.692383,4420.641113,4181.794922,4422.179688
1698668565.602802,0.0,4328.333496,4393.717773,4271.410156,4354.615234,4407.436035,4414.102539,4431.282227,4482.436035,4436.538574,4381.666504,4420.769043,4181.153809,4422.436035
1698668565.61061,0.0,4327.692383,4393.846191,4272.94873,4356.153809,4405.512695,4414.230957,4428.205078,4480.641113,4436.538574,4390.256348,4423.333496,4230.384766,4421.666504
1698668565.618419,0.0,4329.487305,4393.589844,4271.794922,4356.025879,4405.384766,4415.256348,4429.487305,4480.0,4432.692383,4389.615234,4420.769043,4258.333496,4421.025879
1698668565.626227,0.0,4333.974121,4390.641113,4279.230957,4360.897461,4406.025879,4412.563965,4428.077148,4480.897461,4437.307617,4388.717773,4422.436035,4239.743652,4419.487305
1698668565.634035,0.0,4324.743652,4393.589844,4270.0,4357.436035,4404.743652,4413.846191,4430.384766,4480.512695,4441.410156,4387.563965,4419.230957,4182.820313,4419.487305
1698668565.641843,0.0,4326.922852,4392.05127,4272.436035,4355.769043,4403.461426,4411.666504,4429.871582,4480.0,4436.922852,4385.769043,4422.307617,4177.307617,4421.410156
1698668565.649652,0.0,4331.282227,4391.282227,4272.820313,4357.307617,4405.641113,4412.307617,4428.717773,4480.256348,4440.128418,4389.615234,4422.820313,4231.922852,4423.077148
1698668565.65746,0.0,4330.256348,4390.641113,4267.94873,4351.922852,4405.256348,4413.333496,4432.692383,4481.153809,4440.0,4386.922852,4419.743652,4270.256348,4420.769043
1698668565.665268,0.0,4332.820313,4391.025879,4279.487305,4354.871582,4403.333496,4408.461426,4430.256348,4483.461426,4437.05127,4388.077148,4425.641113,4253.589844,4421.922852
1698668565.673076,0.0,4325.256348,4399.102539,4272.563965,4356.922852,4406.666504,4413.846191,4430.512695,4485.512695,4437.563965,4390.128418,4422.307617,4178.717773,4423.333496
1698668565.680884,0.0,4325.256348,4395.769043,4273.717773,4355.769043,4407.94873,4415.769043,4430.641113,4484.487305,4435.769043,4385.641113,4422.05127,4154.743652,4419.487305
1698668565.688693,0.0,4326.282227,4392.436035,4278.077148,4357.179688,4405.0,4412.307617,4427.94873,4480.384766,4439.743652,4389.487305,4426.153809,4226.025879,4422.820313
1698668565.696501,0.0,4327.05127,4394.230957,4267.179688,4356.410156,4406.153809,4414.102539,4430.897461,4480.256348,4438.974121,4390.256348,4422.05127,4277.692383,4423.717773
1698668565.704309,0.0,4333.974121,4386.794922,4272.563965,4356.922852,4407.307617,4409.743652,4429.102539,4485.128418,4438.205078,4389.358887,4425.128418,4260.512695,4417.820313
1698668565.712117,0.0,4327.05127,4390.128418,4270.128418,4352.94873,4407.05127,4411.025879,4428.974121,4485.128418,4443.205078,4390.128418,4424.102539,4186.666504,4419.230957
1698668565.719926,0.0,4329.102539,4392.94873,4273.589844,4354.487305,4408.333496,4413.974121,4432.05127,4482.563965,4440.128418,4388.077148,4420.769043,4146.153809,4421.922852
1698668565.727734,0.0,4333.333496,4388.846191,4280.0,4357.820313,4407.307617,4413.077148,4429.102539,4482.179688,4438.205078,4390.384766,4423.717773,4214.487305,4421.282227
1698668565.735542,0.0,4326.410156,4390.641113,4269.230957,4352.436035,4406.922852,4414.615234,4428.077148,4482.307617,4438.846191,4387.563965,4420.769043,4278.461426,4421.666504
1698668565.74335,0.0,4330.128418,4388.077148,4275.0,4354.871582,4407.05127,4411.794922,4427.307617,4480.897461,4436.410156,4386.666504,4421.410156,4265.0,4421.025879
1698668565.751158,0.0,4328.846191,4391.666504,4273.205078,4357.179688,4406.025879,4413.974121,4428.589844,4481.282227,4437.820313,4389.871582,4418.333496,4194.358887,4418.974121
1698668565.758967,0.0,4329.102539,4391.025879,4269.358887,4355.512695,4406.153809,4415.0,4430.512695,4482.820313,4436.282227,4387.179688,4419.102539,4146.025879,4418.846191
1698668565.766775,0.0,4333.846191,4385.256348,4276.410156,4357.05127,4407.692383,4409.487305,4427.563965,4480.512695,4436.153809,4388.717773,4425.512695,4204.487305,4420.769043
1698668565.774583,0.0,4328.589844,4392.307617,4269.615234,4352.436035,4408.589844,4411.025879,4428.077148,4481.153809,4438.974121,4388.333496,4418.077148,4269.743652,4421.282227
1698668565.782391,0.0,4332.563965,4391.922852,4274.358887,4354.358887,4406.794922,4412.179688,4425.256348,4483.846191,4438.974121,4385.384766,4418.974121,4265.641113,4419.102539
1698668565.790199,0.0,4335.641113,4392.692383,4275.0,4358.205078,4408.205078,4415.641113,4425.897461,4483.846191,4439.102539,4390.128418,4420.384766,4210.256348,4419.871582
1698668565.798008,0.0,4330.641113,4392.94873,4267.94873,4354.358887,4409.230957,4417.436035,4430.897461,4483.846191,4435.128418,4389.102539,4417.05127,4162.563965,4418.974121
1698668565.805816,0.0,4330.0,4386.025879,4273.846191,4355.769043,4405.384766,4412.820313,4428.077148,4482.436035,4437.05127,4386.666504,4421.922852,4203.461426,4415.641113
1698668565.813624,0.0,4327.436035,4389.871582,4269.615234,4355.0,4404.871582,4414.487305,4429.230957,4480.641113,4440.384766,4386.153809,4418.974121,4254.358887,4416.922852
1698668565.821432,0.0,4330.641113,4391.922852,4274.102539,4356.025879,4407.94873,4415.384766,4431.153809,4482.436035,4434.743652,4385.769043,4420.0,4257.692383,4419.102539
1698668565.829241,0.0,4328.333496,4391.153809,4276.922852,4357.820313,4407.436035,4414.615234,4430.384766,4484.615234,4438.846191,4389.487305,4421.025879,4220.897461,4419.358887
1698668565.837049,0.0,4325.128418,4392.05127,4271.666504,4353.461426,4402.820313,4412.307617,4430.769043,4483.974121,4440.384766,4385.769043,4417.179688,4172.94873,4417.563965
1698668565.844857,0.0,4332.692383,4389.615234,4279.871582,4356.410156,4401.666504,4407.94873,4427.05127,4482.179688,4435.769043,4385.128418,4421.025879,4199.743652,4416.025879
1698668565.852665,0.0,4328.589844,4389.230957,4269.487305,4357.436035,4405.128418,4415.0,4429.102539,4482.436035,4438.846191,4389.615234,4418.717773,4246.025879,4417.94873
1698668565.860474,0.0,4329.358887,4387.692383,4270.128418,4355.384766,4405.641113,4418.589844,4431.153809,4483.974121,4439.487305,4388.077148,4417.563965,4259.487305,4419.743652
1698668565.868282,0.0,4331.666504,4391.410156,4278.589844,4356.538574,4403.461426,4412.179688,4428.461426,4482.179688,4439.358887,4387.436035,4420.897461,4232.436035,4421.153809
1698668565.87609,0.0,4325.384766,4392.436035,4268.717773,4356.794922,4405.128418,4411.410156,4430.0,4481.922852,4438.333496,4384.487305,4417.436035,4176.153809,4419.615234
1698668565.883898,0.0,4330.512695,4385.897461,4275.384766,4362.436035,4405.897461,4411.538574,4428.077148,4483.846191,4438.205078,4386.282227,4420.0,4193.333496,4417.692383
1698668565.891706,0.0,4330.641113,4390.0,4273.974121,4359.102539,4406.153809,4412.94873,4429.871582,4483.461426,4438.974121,4389.102539,4421.922852,4241.410156,4417.563965
1698668565.899515,0.0,4329.358887,4390.128418,4271.922852,4353.846191,4409.487305,4414.871582,4431.282227,4481.922852,4434.743652,4384.230957,4420.512695,4256.025879,4416.153809
1698668565.907323,0.0,4331.666504,4387.307617,4277.820313,4359.102539,4409.230957,4414.487305,4427.05127,4482.563965,4437.307617,4385.769043,4420.512695,4243.205078,4417.563965
1698668565.915131,0.0,4329.487305,4394.230957,4270.384766,4357.436035,4404.871582,4415.384766,4430.256348,4486.666504,4438.589844,4388.717773,4418.974121,4178.333496,4421.153809
1698668565.922939,0.0,4331.538574,4387.563965,4276.153809,4356.666504,4403.589844,4410.512695,4428.461426,4487.820313,4435.128418,4388.205078,4422.94873,4162.820313,4421.153809
1698668565.930747,0.0,4326.794922,4390.256348,4273.589844,4355.769043,4406.410156,4412.692383,4425.512695,4486.153809,4438.077148,4387.05127,4418.974121,4272.94873,4419.102539
1698668565.938556,0.0,4325.0,4411.025879,4262.94873,4349.102539,4408.717773,4423.461426,4431.538574,4481.922852,4437.692383,4382.563965,4411.538574,4253.333496,4422.307617
1698668565.946364,0.0,4328.461426,4410.897461,4264.358887,4347.179688,4409.230957,4423.846191,4435.897461,4472.692383,4420.769043,4370.769043,4416.282227,4118.974121,4432.436035
1698668565.954172,0.0,4331.794922,4395.641113,4273.333496,4346.282227,4408.974121,4419.743652,4436.922852,4466.025879,4399.743652,4358.461426,4422.179688,4097.563965,4434.358887
1698668565.96198,0.0,4341.794922,4389.102539,4295.256348,4350.512695,4406.922852,4414.230957,4430.384766,4461.282227,4396.410156,4360.769043,4432.436035,4154.615234,4429.358887
1698668565.969788,0.0,4335.128418,4397.692383,4293.205078,4356.025879,4406.538574,4415.512695,4426.538574,4458.077148,4400.384766,4361.538574,4434.615234,4142.436035,4433.589844
1698668565.977597,0.0,4328.205078,4397.820313,4283.589844,4357.05127,4406.538574,4419.358887,4430.384766,4460.897461,4398.589844,4358.589844,4430.0,4095.256348,4436.025879
1698668565.985405,0.0,4337.307617,4389.871582,4288.589844,4358.717773,4405.0,4414.102539,4428.205078,4459.230957,4402.179688,4366.794922,4431.666504,4130.641113,4432.563965
1698668565.993213,0.0,4337.692383,4392.692383,4279.743652,4355.384766,4405.512695,4410.769043,4428.333496,4455.384766,4405.384766,4365.512695,4427.05127,4182.820313,4432.563965
1698668566.001022,0.0,4336.922852,4387.820313,4285.384766,4357.05127,4405.897461,4406.153809,4427.563965,4459.230957,4404.230957,4361.794922,4426.922852,4217.05127,4432.05127
1698668566.00883,0.0,4331.666504,4391.153809,4285.897461,4361.538574,4404.487305,4410.384766,4426.025879,4465.0,4413.589844,4373.846191,4425.769043,4209.487305,4434.615234
1698668566.016638,0.0,4325.769043,4397.692383,4268.846191,4356.666504,4405.641113,4419.743652,4430.641113,4467.563965,4422.436035,4377.436035,4417.307617,4122.94873,4437.436035
1698668566.024446,0.0,4333.333496,4390.384766,4277.563965,4354.102539,4406.153809,4415.769043,4428.461426,4466.025879,4418.589844,4370.641113,4423.077148,4111.282227,4432.436035
1698668566.032254,0.0,4333.333496,4390.641113,4280.769043,4352.94873,4405.256348,4414.230957,4426.282227,4463.205078,4412.05127,4367.436035,4425.897461,4183.589844,4429.487305
1698668566.040063,0.0,4334.102539,4391.794922,4276.794922,4356.282227,4404.871582,4413.846191,4426.538574,4462.563965,4412.179688,4366.153809,4419.871582,4211.794922,4431.794922
1698668566.047871,0.0,4336.410156,4391.282227,4280.897461,4361.410156,4406.922852,4412.94873,4426.538574,4461.922852,4421.410156,4372.05127,4419.230957,4168.974121,4433.205078
1698668566.055679,0.0,4329.102539,4393.589844,4277.179688,4355.641113,4409.358887,4413.717773,4432.307617,4463.717773,4421.153809,4376.282227,4421.282227,4129.358887,4428.846191
1698668566.063487,0.0,4332.563965,4392.563965,4282.94873,4357.692383,4407.94873,4409.230957,4430.384766,4466.410156,4414.615234,4372.692383,4426.153809,4150.128418,4427.563965
1698668566.071295,0.0,4332.692383,4392.692383,4278.717773,4360.384766,4405.384766,4409.615234,4426.410156,4464.743652,4416.666504,4372.179688,4423.461426,4186.538574,4431.538574
1698668566.079104,0.0,4332.692383,4391.025879,4277.307617,4356.794922,4404.871582,4412.307617,4427.820313,4467.307617,4420.128418,4375.384766,4420.641113,4196.410156,4428.717773
1698668566.086912,0.0,4337.820313,4390.256348,4287.05127,4360.512695,4405.897461,4412.307617,4428.077148,4471.538574,4425.641113,4379.487305,4422.563965,4177.563965,4426.922852
1698668566.09472,0.0,4330.897461,4392.436035,4277.307617,4358.461426,4406.153809,4415.256348,4427.820313,4473.077148,4426.282227,4376.794922,4416.922852,4142.820313,4427.563965
1698668566.102528,0.0,4331.538574,4388.717773,4280.128418,4357.307617,4403.846191,4412.94873,4424.743652,4473.717773,4422.94873,4377.179688,4420.256348,4152.436035,4425.769043
1698668566.110336,0.0,4333.333496,4391.666504,4280.641113,4360.0,4403.589844,4412.05127,4427.692383,4469.487305,4428.974121,4383.461426,4420.256348,4179.743652,4426.410156
1698668566.118145,0.0,4334.230957,4394.102539,4276.410156,4357.94873,4404.487305,4414.230957,4432.563965,4469.230957,4431.410156,4379.743652,4414.487305,4183.589844,4425.128418
1698668566.125953,0.0,4336.538574,4388.205078,4282.563965,4358.974121,4402.94873,4411.794922,4427.179688,4474.358887,4429.871582,4381.153809,4420.897461,4179.102539,4423.461426
1698668566.133761,0.0,4327.820313,4391.666504,4274.615234,4357.563965,4403.717773,4412.563965,4427.563965,4474.102539,4429.615234,4383.077148,4418.205078,4143.846191,4423.846191
1698668566.141569,0.0,4327.94873,4389.230957,4281.410156,4358.077148,4406.538574,4412.179688,4429.871582,4471.794922,4428.205078,4378.461426,4417.436035,4133.846191,4423.077148
1698668566.149378,0.0,4331.410156,4385.384766,4284.102539,4358.461426,4406.153809,4412.692383,4427.820313,4473.589844,4435.128418,4382.563965,4421.282227,4178.205078,4424.871582
1698668566.157186,0.0,4332.692383,4389.102539,4272.563965,4355.384766,4402.94873,4415.256348,4429.230957,4476.538574,4434.615234,4382.307617,4420.0,4197.307617,4425.256348
1698668566.164994,0.0,4337.05127,4388.333496,4282.436035,4359.358887,4403.589844,4411.666504,4426.666504,4476.025879,4428.205078,4380.769043,4425.128418,4183.461426,4421.794922
1698668566.172802,0.0,4332.307617,4392.436035,4281.794922,4357.94873,4406.922852,4414.487305,4428.589844,4476.538574,4430.256348,4380.769043,4421.922852,4152.05127,4421.666504
1698668566.180611,0.0,4331.282227,4389.615234,4280.128418,4357.05127,4406.794922,4416.025879,4430.128418,4478.333496,4428.589844,4377.94873,4419.487305,4150.897461,4424.615234
1698668566.188419,0.0,4332.563965,4386.538574,4282.820313,4360.384766,4407.692383,4413.589844,4424.102539,4478.205078,4429.102539,4383.205078,4421.410156,4178.205078,4428.205078
1698668566.196227,0.0,4332.179688,4390.897461,4274.358887,4356.282227,4409.487305,4416.538574,4425.256348,4478.717773,4429.102539,4382.94873,4417.94873,4174.230957,4425.128418
1698668566.204035,0.0,4337.05127,4386.922852,4280.384766,4357.692383,4405.641113,4413.717773,4427.94873,4475.897461,4428.974121,4381.153809,4419.871582,4169.358887,4417.820313
1698668566.211843,0.0,4332.563965,4388.589844,4280.384766,4359.615234,4403.333496,4411.025879,4430.0,4472.307617,4432.820313,4382.692383,4418.077148,4161.410156,4421.153809
1698668566.219652,0.0,4332.563965,4389.358887,4275.641113,4357.692383,4407.05127,4411.922852,4427.563965,4475.641113,4428.846191,4376.410156,4418.461426,4148.846191,4423.974121
1698668566.22746,0.0,4336.538574,4387.692383,4277.05127,4359.230957,4407.179688,4411.538574,4424.230957,4478.974121,4430.769043,4378.717773,4421.666504,4167.436035,4421.282227
1698668566.235268,0.0,4330.512695,4391.538574,4273.077148,4358.077148,4404.615234,4413.846191,4430.641113,4477.692383,4433.589844,4382.179688,4416.153809,4174.230957,4420.641113
1698668566.243076,0.0,4333.333496,4388.589844,4281.153809,4358.205078,4405.641113,4412.692383,4429.487305,4476.538574,4428.974121,4378.974121,4418.717773,4171.666504,4419.358887
1698668566.250884,0.0,4333.717773,4390.128418,4278.461426,4356.538574,4407.563965,4412.94873,4425.769043,4478.589844,4429.487305,4381.153809,4421.282227,4166.538574,4418.589844
1698668566.258693,0.0,4333.589844,4390.769043,4274.230957,4355.128418,4405.512695,4413.589844,4429.102539,4480.769043,4428.717773,4378.846191,4417.05127,4158.205078,4417.436035
1698668566.266501,0.0,4336.153809,4387.692383,4283.717773,4361.025879,4402.307617,4412.436035,4429.102539,4479.487305,4429.487305,4376.922852,4416.538574,4170.256348,4417.307617
1698668566.274309,0.0,4329.487305,4391.282227,4277.692383,4358.461426,4404.358887,4416.282227,4429.358887,4476.282227,4429.230957,4377.179688,4415.128418,4173.077148,4418.846191
1698668566.282117,0.0,4333.846191,4388.974121,4278.333496,4355.512695,4407.307617,4413.974121,4427.692383,4476.666504,4424.615234,4375.897461,4420.897461,4174.358887,4417.563965
1698668566.289925,0.0,4335.897461,4385.769043,4280.512695,4358.333496,4406.666504,4414.743652,4426.410156,4479.230957,4427.820313,4379.358887,4421.794922,4167.692383,4418.717773
1698668566.297734,0.0,4331.922852,4386.666504,4275.0,4358.589844,4405.0,4419.615234,4429.615234,4476.922852,4429.230957,4378.589844,4415.641113,4149.487305,4421.025879
1698668566.305542,0.0,4336.153809,4385.256348,4280.256348,4360.384766,4405.128418,4414.487305,4427.94873,4475.0,4428.461426,4377.94873,4417.94873,4166.922852,4420.897461
1698668566.31335,0.0,4335.128418,4385.897461,4273.461426,4357.820313,4406.666504,4412.05127,4427.436035,4476.666504,4428.461426,4377.692383,4414.743652,4175.641113,4419.871582
1698668566.321158,0.0,4338.461426,4385.128418,4278.717773,4357.820313,4405.641113,4412.05127,4428.077148,4476.282227,4425.897461,4377.820313,4417.05127,4173.205078,4419.358887
1698668566.328967,0.0,4337.563965,4388.077148,4287.563965,4359.102539,4405.384766,4413.205078,4428.333496,4477.94873,4427.692383,4381.794922,4423.461426,4173.333496,4419.871582
1698668566.336775,0.0,4332.820313,4392.436035,4276.794922,4356.666504,4405.512695,4415.0,4430.512695,4478.717773,4427.436035,4379.102539,4418.333496,4152.94873,4418.717773
1698668566.344583,0.0,4337.563965,4387.05127,4276.922852,4361.153809,4403.461426,4412.820313,4427.94873,4475.128418,4428.589844,4378.461426,4417.436035,4161.794922,4417.436035
1698668566.352391,0.0,4332.692383,4389.487305,4271.666504,4359.743652,4405.256348,4417.179688,4429.102539,4475.897461,4432.05127,4378.589844,4416.282227,4175.384766,4418.589844
1698668566.3602,0.0,4331.794922,4390.256348,4274.230957,4356.153809,4407.563965,4417.436035,4431.282227,4478.205078,4426.666504,4374.871582,4419.358887,4173.333496,4418.717773
1698668566.368008,0.0,4336.025879,4385.384766,4281.025879,4356.794922,4405.897461,4410.897461,4427.436035,4475.769043,4428.974121,4379.615234,4422.05127,4173.589844,4417.563965
1698668566.375816,0.0,4333.205078,4385.897461,4274.102539,4353.846191,4406.282227,4412.94873,4429.487305,4474.871582,4431.794922,4379.871582,4415.128418,4157.820313,4416.666504
1698668566.383624,0.0,4335.384766,4382.563965,4282.563965,4355.641113,4407.307617,4413.077148,4429.102539,4477.307617,4426.794922,4375.0,4418.205078,4160.256348,4417.307617
1698668566.391432,0.0,4332.94873,4387.94873,4278.974121,4356.794922,4404.102539,4413.589844,4426.794922,4479.230957,4428.461426,4375.769043,4421.025879,4171.410156,4419.487305
1698668566.399241,0.0,4332.563965,4387.820313,4273.974121,4353.717773,4403.077148,4414.615234,4428.974121,4477.307617,4426.410156,4375.256348,4419.358887,4171.153809,4417.563965
1698668566.407049,0.0,4336.538574,4383.589844,4282.05127,4357.179688,4406.282227,4412.179688,4427.692383,4474.871582,4424.743652,4376.794922,4420.256348,4174.871582,4418.461426
1698668566.414857,0.0,4333.846191,4390.641113,4277.692383,4357.05127,4406.153809,4415.641113,4427.94873,4475.384766,4427.436035,4377.94873,4415.128418,4163.974121,4421.153809
1698668566.422665,0.0,4337.436035,4386.282227,4281.410156,4355.897461,4405.897461,4413.333496,4427.563965,4475.512695,4426.922852,4377.05127,4415.897461,4164.615234,4416.538574
1698668566.430473,0.0,4336.538574,4383.333496,4276.794922,4356.410156,4408.205078,4412.436035,4427.692383,4474.487305,4426.794922,4377.436035,4418.333496,4170.128418,4417.05127
1698668566.438282,0.0,4335.256348,4386.794922,4274.615234,4354.358887,4405.769043,4415.256348,4429.102539,4475.384766,4424.230957,4375.512695,4416.922852,4165.384766,4420.384766
1698668566.44609,0.0,4338.461426,4386.282227,4288.461426,4358.333496,4401.666504,4411.410156,4426.922852,4475.384766,4425.384766,4378.077148,4420.256348,4175.0,4418.717773
1698668566.453898,0.0,4331.025879,4390.256348,4280.256348,4357.692383,4404.871582,4412.563965,4429.102539,4475.384766,4428.589844,4377.307617,4417.563965,4165.256348,4417.436035
1698668566.461706,0.0,4333.077148,4392.05127,4280.384766,4356.282227,4406.922852,4413.589844,4429.230957,4476.153809,4427.05127,4373.461426,4418.461426,4160.641113,4418.077148
1698668566.469514,0.0,4337.563965,4392.820313,4284.743652,4359.487305,4403.077148,4413.974121,4427.563965,4476.666504,4428.077148,4379.102539,4421.153809,4171.025879,4420.897461
1698668566.477323,0.0,4335.641113,4389.487305,4279.230957,4357.436035,4402.563965,4414.743652,4430.512695,4477.307617,4425.897461,4377.94873,4416.538574,4162.436035,4418.205078
1698668566.485131,0.0,4337.307617,4383.846191,4284.871582,4359.358887,4405.256348,4412.05127,4428.846191,4478.205078,4427.307617,4374.743652,4419.615234,4168.846191,4415.384766
1698668566.492939,0.0,4332.05127,4391.025879,4275.256348,4358.077148,4407.563965,4414.743652,4429.230957,4476.025879,4430.384766,4377.05127,4418.974121,4165.769043,4419.743652
1698668566.500747,0.0,4337.05127,4390.769043,4276.922852,4358.333496,4405.128418,4414.358887,4430.256348,4473.205078,4425.128418,4375.769043,4416.922852,4158.846191,4420.128418
1698668566.508556,0.0,4341.025879,4386.282227,4287.692383,4360.256348,4402.179688,4412.820313,4427.563965,4473.333496,4426.666504,4374.358887,4418.974121,4167.436035,4417.179688
1698668566.516364,0.0,4332.94873,4391.282227,4278.077148,4355.384766,4405.256348,4414.743652,4428.717773,4474.102539,4427.94873,4372.05127,4418.589844,4160.641113,4417.436035
1698668566.524172,0.0,4333.974121,4387.94873,4279.871582,4357.307617,4406.282227,4413.205078,4427.692383,4473.461426,4424.487305,4373.333496,4422.94873,4166.666504,4417.179688
1698668566.53198,0.0,4332.94873,4386.922852,4279.871582,4356.282227,4403.717773,4416.538574,4429.102539,4473.589844,4424.615234,4373.974121,4418.846191,4164.871582,4415.512695
1698668566.539789,0.0,4335.897461,4387.692383,4280.769043,4356.025879,4402.692383,4417.307617,4428.846191,4474.743652,4422.05127,4372.307617,4418.077148,4159.615234,4415.769043
1698668566.547597,0.0,4337.436035,4388.974121,4285.0,4359.615234,4404.615234,4415.384766,4424.871582,4475.0,4423.846191,4377.179688,4422.820313,4174.102539,4420.512695
1698668566.555405,0.0,4330.769043,4392.307617,4275.897461,4355.384766,4405.384766,4418.589844,4427.436035,4475.384766,4426.922852,4376.410156,4415.512695,4163.205078,4419.743652
1698668566.563213,0.0,4336.666504,4387.436035,4280.897461,4357.94873,4404.230957,4414.871582,4425.384766,4474.358887,4425.641113,4374.615234,4420.256348,4161.922852,4415.769043
1698668566.571021,0.0,4336.666504,4388.717773,4280.769043,4358.974121,4405.128418,4416.025879,4425.128418,4471.025879,4426.153809,4377.436035,4424.487305,4166.282227,4421.794922
1698668566.57883,0.0,4335.384766,4387.692383,4279.871582,4353.974121,4404.487305,4421.153809,4430.897461,4469.615234,4423.717773,4374.358887,4417.436035,4156.153809,4425.128418
1698668566.586638,0.0,4340.641113,4385.897461,4286.282227,4356.922852,4402.436035,4416.282227,4428.846191,4469.615234,4423.974121,4372.94873,4417.05127,4163.077148,4419.358887
1698668566.594446,0.0,4335.512695,4393.333496,4274.615234,4357.05127,4404.487305,4413.333496,4427.94873,4470.0,4425.0,4373.974121,4417.436035,4157.179688,4416.153809
1698668566.602254,0.0,4335.0,4388.589844,4282.05127,4357.307617,4406.025879,4413.077148,4429.358887,4468.974121,4423.461426,4374.102539,4421.922852,4160.641113,4417.94873
1698668566.610062,0.0,4335.641113,4387.436035,4289.102539,4358.717773,4404.743652,4414.487305,4430.128418,4467.436035,4426.153809,4375.128418,4420.897461,4168.589844,4421.282227
1698668566.617871,0.0,4333.205078,4392.179688,4275.512695,4354.871582,4403.974121,4416.922852,4430.256348,4470.769043,4423.974121,4373.333496,4418.333496,4158.205078,4420.0
1698668566.625679,0.0,4334.230957,4389.487305,4278.205078,4357.692383,4404.230957,4416.153809,4427.179688,4475.769043,4422.820313,4377.05127,4423.974121,4167.563965,4419.487305
1698668566.633487,0.0,4332.179688,4389.102539,4278.974121,4358.717773,4404.615234,4418.717773,4427.436035,4474.230957,4425.128418,4377.563965,4418.846191,4166.922852,4421.025879
1698668566.641295,0.0,4337.563965,4385.0,4281.922852,4355.641113,4403.846191,4417.820313,4426.282227,4469.102539,4422.692383,4370.641113,4417.692383,4166.794922,4418.205078
1698668566.649104,0.0,4338.846191,4386.922852,4281.794922,4356.410156,4403.717773,4416.666504,4423.333496,4470.897461,4423.974121,4373.589844,4422.820313,4172.563965,4419.358887
1698668566.656912,0.0,4334.358887,4391.538574,4273.717773,4356.282227,4402.692383,4418.974121,4426.922852,4475.0,4423.077148,4374.230957,4417.692383,4159.487305,4419.871582
1698668566.66472,0.0,4335.256348,4387.05127,4282.179688,4359.102539,4402.307617,4415.128418,4429.230957,4470.769043,4421.538574,4371.922852,4419.358887,4166.538574,4417.436035
1698668566.672528,0.0,4332.436035,4388.589844,4280.641113,4357.307617,4405.512695,4415.512695,4430.769043,4467.179688,4425.384766,4373.717773,4420.128418,4168.846191,4419.487305
1698668566.680336,0.0,4339.102539,4389.615234,4280.0,4357.307617,4406.538574,4416.025879,4426.794922,4470.128418,4423.717773,4373.333496,4418.846191,4166.794922,4420.256348
1698668566.688145,0.0,4339.615234,4390.0,4285.512695,4361.282227,4403.589844,4415.769043,4423.589844,4470.897461,4423.974121,4375.128418,4419.871582,4173.974121,4420.641113
1698668566.695953,0.0,4328.461426,4394.487305,4278.077148,4356.922852,4403.846191,4417.820313,4430.897461,4469.487305,4425.897461,4373.846191,4415.769043,4157.94873,4421.794922
1698668566.703761,0.0,4333.589844,4391.794922,4280.897461,4357.820313,4404.871582,4413.846191,4428.589844,4472.179688,4423.461426,4372.94873,4420.256348,4162.820313,4421.025879
1698668566.711569,0.0,4336.794922,4390.256348,4277.563965,4359.871582,4406.922852,4415.128418,4425.897461,4474.102539,4421.153809,4372.563965,4421.666504,4171.410156,4420.0
1698668566.719378,0.0,4336.794922,4389.615234,4277.563965,4357.94873,4408.974121,4416.153809,4430.512695,4471.794922,4420.128418,4370.256348,4418.333496,4163.846191,4418.974121
1698668566.727186,0.0,4338.333496,4389.230957,4283.461426,4359.102539,4407.436035,4413.333496,4427.436035,4468.974121,4424.871582,4374.487305,4420.384766,4171.153809,4420.512695
1698668566.734994,0.0,4335.769043,4394.487305,4275.384766,4357.563965,4407.563965,4416.410156,4428.974121,4470.256348,4425.512695,4373.461426,4417.05127,4161.025879,4423.333496
1698668566.742802,0.0,4340.512695,4388.205078,4286.922852,4359.871582,4406.794922,4416.922852,4430.0,4470.641113,4422.307617,4371.666504,4418.974121,4157.436035,4419.487305
1698668566.75061,0.0,4336.666504,4383.974121,4289.487305,4357.05127,4403.077148,4418.461426,4428.077148,4467.94873,4424.615234,4374.487305,4418.205078,4164.230957,4415.0
1698668566.758419,0.0,4334.358887,4387.94873,4276.410156,4352.94873,4403.461426,4417.436035,4430.256348,4468.974121,4422.563965,4371.282227,4416.922852,4162.307617,4418.461426
1698668566.766227,0.0,4342.05127,4386.025879,4280.0,4358.846191,4405.512695,4411.794922,4428.717773,4470.256348,4421.666504,4371.666504,4424.230957,4171.538574,4421.794922
1698668566.774035,0.0,4335.897461,4389.743652,4278.589844,4355.897461,4405.641113,4415.641113,4428.461426,4469.102539,4422.05127,4372.692383,4420.256348,4159.102539,4420.0
1698668566.781843,0.0,4334.615234,4389.871582,4286.153809,4354.487305,4404.230957,4414.871582,4429.871582,4468.205078,4418.589844,4370.128418,4417.05127,4157.563965,4418.461426
1698668566.789652,0.0,4333.846191,4388.717773,4285.641113,4360.897461,4406.025879,4410.128418,4429.358887,4469.487305,4422.436035,4372.05127,4419.871582,4170.0,4420.512695
1698668566.79746,0.0,4330.897461,4387.820313,4272.307617,4358.461426,4407.563965,4414.102539,4429.102539,4470.641113,4423.589844,4371.282227,4419.358887,4159.230957,4420.0
1698668566.805268,0.0,4339.358887,4385.0,4278.205078,4356.794922,4404.102539,4414.230957,4427.179688,4467.307617,4421.025879,4371.666504,4420.384766,4165.641113,4418.974121
1698668566.813076,0.0,4336.153809,4391.282227,4275.384766,4358.077148,4404.358887,4415.769043,4426.153809,4463.974121,4419.743652,4370.384766,4416.410156,4163.974121,4421.794922
1698668566.820884,0.0,4333.717773,4389.871582,4278.205078,4358.333496,4407.436035,4416.666504,4424.230957,4466.153809,4418.974121,4366.282227,4418.589844,4159.358887,4422.692383
1698668566.828693,0.0,4335.769043,4391.282227,4283.589844,4357.563965,4406.922852,4415.0,4426.410156,4470.897461,4426.794922,4370.256348,4421.153809,4169.487305,4422.692383
1698668566.836501,0.0,4332.820313,4395.384766,4275.0,4355.0,4405.512695,4419.871582,4430.769043,4469.487305,4426.794922,4371.538574,4414.615234,4160.512695,4420.769043
1698668566.844309,0.0,4337.820313,4386.922852,4279.102539,4359.487305,4405.769043,4418.205078,4424.102539,4464.487305,4420.128418,4373.077148,4418.974121,4165.0,4420.128418
1698668566.852117,0.0,4338.077148,4391.922852,4277.05127,4358.333496,4407.05127,4415.641113,4424.230957,4466.282227,4420.641113,4373.846191,4421.794922,4162.820313,4423.077148
1698668566.859925,0.0,4334.615234,4395.769043,4281.153809,4355.256348,4406.666504,4414.743652,4430.897461,4469.358887,4417.692383,4369.487305,4418.333496,4156.538574,4419.487305
1698668566.867734,0.0,4332.307617,4390.641113,4286.538574,4361.410156,4405.128418,4413.974121,4428.717773,4466.666504,4417.179688,4372.05127,4421.282227,4170.769043,4415.512695
1698668566.875542,0.0,4331.538574,4392.179688,4274.743652,4358.974121,4406.025879,4416.153809,4429.358887,4466.282227,4420.0,4369.615234,4418.974121,4162.307617,4418.589844
1698668566.88335,0.0,4338.205078,4388.333496,4282.307617,4356.666504,4407.179688,4415.0,4430.128418,4469.102539,4419.743652,4368.077148,4418.974121,4162.436035,4419.102539
1698668566.891158,0.0,4335.384766,4388.461426,4281.922852,4356.922852,4405.384766,4416.794922,4430.384766,4469.615234,4420.384766,4373.205078,4420.0,4165.128418,4418.717773
1698668566.898967,0.0,4335.256348,4391.538574,4277.179688,4357.563965,4403.205078,4415.897461,4429.871582,4468.846191,4417.820313,4368.846191,4421.282227,4157.436035,4419.615234
1698668566.906775,0.0,4338.461426,4390.256348,4287.563965,4361.025879,4403.077148,4412.820313,4425.384766,4467.179688,4420.769043,4367.692383,4421.794922,4171.025879,4420.641113
1698668566.914583,0.0,4330.512695,4393.077148,4279.487305,4354.358887,4404.615234,4417.563965,4430.256348,4465.897461,4425.641113,4371.153809,4413.077148,4163.333496,4419.871582
1698668566.922391,0.0,4332.94873,4388.589844,4280.384766,4354.615234,4405.512695,4415.0,4431.922852,4468.717773,4422.436035,4372.436035,4416.922852,4160.256348,4417.820313
1698668566.9302,0.0,4333.205078,4387.94873,4282.179688,4359.871582,4406.922852,4412.692383,4429.871582,4471.410156,4422.94873,4373.333496,4420.769043,4167.820313,4420.128418
1698668566.938008,0.0,4332.563965,4392.436035,4275.384766,4355.769043,4407.179688,4415.0,4430.256348,4470.256348,4420.897461,4367.94873,4414.487305,4159.230957,4418.717773
1698668566.945816,0.0,4337.94873,4389.615234,4280.256348,4355.256348,4404.358887,4412.94873,4424.487305,4464.358887,4417.307617,4367.94873,4419.871582,4167.179688,4416.153809
1698668566.953624,0.0,4333.589844,4392.563965,4272.563965,4353.717773,4405.512695,4416.794922,4429.358887,4463.077148,4418.461426,4371.410156,4418.717773,4162.820313,4419.871582
1698668566.961432,0.0,4335.897461,4391.153809,4279.102539,4356.282227,4408.846191,4415.897461,4435.897461,4468.205078,4419.358887,4371.538574,4416.025879,4164.230957,4419.230957
1698668566.969241,0.0,4333.205078,4388.974121,4284.487305,4360.512695,4408.333496,4412.94873,4429.743652,4468.333496,4424.102539,4374.743652,4419.358887,4175.0,4416.025879
1698668566.977049,0.0,4329.102539,4392.436035,4272.820313,4358.205078,4407.307617,4420.769043,4426.666504,4465.769043,4425.128418,4372.692383,4417.94873,4159.871582,4417.179688
1698668566.984857,0.0,4337.436035,4391.794922,4282.436035,4359.743652,4406.025879,4419.615234,4428.077148,4465.641113,4424.102539,4370.641113,4419.743652,4166.153809,4418.717773
1698668566.992665,0.0,4332.563965,4394.230957,4282.692383,4357.94873,4406.410156,4415.384766,4431.282227,4468.333496,4422.436035,4370.384766,4416.153809,4167.05127,4418.461426
1698668567.000473,0.0,4333.717773,4390.897461,4281.922852,4357.820313,4406.025879,4414.615234,4428.461426,4471.025879,4417.563965,4367.563965,4418.846191,4160.0,4419.871582
1698668567.008282,0.0,4341.025879,4389.358887,4285.512695,4360.256348,4404.871582,4414.615234,4423.717773,4469.230957,4422.563965,4371.282227,4422.05127,4171.282227,4421.922852
1698668567.01609,0.0,4336.538574,4392.820313,4275.897461,4355.769043,4406.666504,4417.436035,4429.615234,4468.205078,4425.641113,4370.384766,4413.205078,4162.692383,4418.846191
1698668567.023898,0.0,4336.666504,4390.256348,4280.769043,4358.333496,4406.025879,4414.230957,4430.128418,4468.846191,4420.769043,4369.871582,4417.563965,4165.641113,4416.538574
1698668567.031706,0.0,4333.589844,4392.563965,4278.717773,4359.358887,4404.358887,4415.384766,4427.820313,4469.743652,4421.666504,4374.743652,4419.743652,4168.846191,4419.743652
1698668567.039515,0.0,4333.589844,4390.641113,4280.0,4355.512695,4405.128418,4421.153809,4430.128418,4470.512695,4420.512695,4371.153809,4416.794922,4161.153809,4421.025879
1698668567.047323,0.0,4337.820313,4389.871582,4289.743652,4358.717773,4405.897461,4420.128418,4428.717773,4471.538574,4420.384766,4370.128418,4420.641113,4168.974121,4421.410156
1698668567.055131,0.0,4334.487305,4392.94873,4276.410156,4357.307617,4405.897461,4418.589844,4431.153809,4471.538574,4422.05127,4368.717773,4416.282227,4159.871582,4422.436035
1698668567.062939,0.0,4338.846191,4384.743652,4275.897461,4357.820313,4405.769043,4413.974121,4431.538574,4470.769043,4419.871582,4368.717773,4417.179688,4164.743652,4421.922852
1698668567.070748,0.0,4337.179688,4387.820313,4278.205078,4358.717773,4406.538574,4416.794922,4430.256348,4471.666504,4421.153809,4374.102539,4419.871582,4171.410156,4422.563965
1698668567.078556,0.0,4332.307617,4391.666504,4275.512695,4354.743652,4406.282227,4419.615234,4431.025879,4470.641113,4422.563965,4371.153809,4417.307617,4160.641113,4421.922852
1698668567.086364,0.0,4335.512695,4384.871582,4284.615234,4358.333496,4405.384766,4412.820313,4429.230957,4467.94873,4423.589844,4369.871582,4419.230957,4172.307617,4420.512695
1698668567.094172,0.0,4333.461426,4392.436035,4279.615234,4357.307617,4408.717773,4414.102539,4431.410156,4469.230957,4420.512695,4370.128418,4416.922852,4166.153809,4420.641113
1698668567.10198,0.0,4337.692383,4392.94873,4282.179688,4355.384766,4408.974121,4415.641113,4429.487305,4469.102539,4419.102539,4367.820313,4418.589844,4163.717773,4417.563965
1698668567.109789,0.0,4336.025879,4388.205078,4282.05127,4358.333496,4405.512695,4416.922852,4427.436035,4466.666504,4427.05127,4369.230957,4417.436035,4173.589844,4418.077148
1698668567.117597,0.0,4331.410156,4392.179688,4276.282227,4355.769043,4408.461426,4416.922852,4431.153809,4469.615234,4422.563965,4368.589844,4411.282227,4159.615234,4417.820313
1698668567.125405,0.0,4335.769043,4388.461426,4287.436035,4358.077148,4409.358887,4410.769043,4427.820313,4470.512695,4417.307617,4369.358887,4419.230957,4165.641113,4418.461426
1698668567.133213,0.0,4333.077148,4390.897461,4278.461426,4357.820313,4406.410156,4413.846191,4427.563965,4465.256348,4422.820313,4369.230957,4419.487305,4164.743652,4423.974121
1698668567.141021,0.0,4336.794922,4393.205078,4278.717773,4354.871582,4407.563965,4416.282227,4430.0,4466.794922,4421.538574,4368.205078,4414.487305,4158.205078,4422.692383
1698668567.14883,0.0,4336.538574,4390.769043,4286.153809,4355.512695,4408.589844,4415.384766,4429.871582,4471.025879,4422.05127,4372.563965,4417.179688,4168.589844,4421.410156
1698668567.156638,0.0,4331.153809,4394.487305,4276.025879,4357.179688,4405.641113,4417.179688,4430.256348,4468.205078,4423.205078,4371.666504,4418.205078,4163.205078,4422.563965
1698668567.164446,0.0,4338.461426,4391.538574,4281.922852,4360.384766,4405.641113,4414.230957,4426.410156,4463.846191,4421.794922,4369.743652,4420.0,4168.717773,4419.487305
1698668567.172254,0.0,4333.461426,4391.922852,4277.307617,4355.384766,4408.077148,4415.128418,4428.205078,4465.512695,4421.153809,4371.153809,4415.384766,4165.641113,4420.384766
1698668567.180062,0.0,4330.897461,4394.615234,4277.820313,4355.641113,4405.897461,4417.563965,4430.897461,4467.94873,4417.820313,4369.230957,4419.487305,4160.384766,4422.692383
1698668567.187871,0.0,4336.666504,4392.563965,4288.717773,4360.512695,4405.897461,4416.025879,4428.589844,4467.307617,4421.538574,4370.769043,4424.871582,4173.974121,4419.358887
1698668567.195679,0.0,4334.743652,4390.128418,4279.230957,4357.179688,4410.0,4417.179688,4430.769043,4468.717773,4421.538574,4366.538574,4414.615234,4160.384766,4417.179688
1698668567.203487,0.0,4338.589844,4387.563965,4281.666504,4359.615234,4409.230957,4415.0,4428.846191,4469.743652,4417.692383,4364.358887,4418.589844,4160.641113,4420.641113
1698668567.211295,0.0,4334.743652,4395.641113,4276.922852,4359.743652,4407.179688,4415.512695,4428.717773,4469.615234,4424.615234,4369.230957,4423.589844,4167.179688,4421.794922
1698668567.219104,0.0,4333.846191,4393.461426,4274.743652,4358.205078,4405.897461,4414.871582,4430.128418,4469.102539,4422.179688,4367.307617,4419.487305,4158.461426,4421.282227
1698668567.226912,0.0,4340.512695,4386.153809,4286.153809,4363.205078,4405.256348,4411.794922,4425.769043,4467.820313,4419.102539,4369.102539,4423.846191,4168.974121,4423.333496
1698668567.23472,0.0,4332.820313,4394.743652,4275.769043,4360.0,4408.077148,4418.205078,4431.153809,4468.205078,4424.230957,4370.769043,4420.641113,4163.205078,4423.461426
1698668567.242528,0.0,4333.589844,4393.333496,4280.256348,4358.205078,4407.05127,4416.025879,4433.333496,4467.05127,4425.641113,4370.128418,4415.641113,4164.743652,4418.333496
1698668567.250337,0.0,4335.641113,4390.384766,4287.307617,4360.384766,4405.512695,4412.179688,4428.589844,4466.666504,4426.153809,4372.692383,4412.307617,4171.153809,4416.794922
1698668567.258145,0.0,4333.461426,4391.666504,4279.871582,4359.358887,4406.538574,4416.922852,4430.256348,4466.922852,4420.897461,4369.102539,4414.230957,4158.205078,4420.769043
1698668567.265953,0.0,4336.538574,4390.256348,4282.179688,4362.179688,4405.897461,4413.717773,4429.102539,4466.666504,4420.384766,4370.128418,4425.512695,4170.512695,4421.538574
1698668567.273761,0.0,4331.666504,4393.333496,4276.666504,4356.410156,4406.794922,4414.487305,4432.563965,4470.128418,4423.846191,4368.974121,4420.769043,4166.794922,4419.358887
1698668567.281569,0.0,4334.230957,4389.102539,4280.641113,4353.974121,4407.307617,4417.179688,4433.205078,4471.794922,4420.512695,4364.230957,4417.94873,4158.717773,4419.871582
1698668567.289378,0.0,4335.0,4388.077148,4281.025879,4358.333496,4405.128418,4416.153809,4428.589844,4469.102539,4421.922852,4371.922852,4422.307617,4168.717773,4423.717773
1698668567.297186,0.0,4330.128418,4391.922852,4272.307617,4355.897461,4406.538574,4415.512695,4428.717773,4468.461426,4421.153809,4372.692383,4416.410156,4160.641113,4422.307617
1698668567.304994,0.0,4336.666504,4389.102539,4282.820313,4359.615234,4408.461426,4412.307617,4426.538574,4467.179688,4420.0,4365.897461,4416.794922,4167.563965,4420.128418
1698668567.312802,0.0,4334.871582,4391.153809,4277.94873,4358.205078,4405.512695,4415.128418,4426.922852,4465.0,4421.794922,4365.512695,4416.922852,4166.410156,4422.94873
1698668567.32061,0.0,4336.666504,4390.769043,4280.0,4355.256348,4405.512695,4415.641113,4426.666504,4467.179688,4417.94873,4366.666504,4419.615234,4159.743652,4420.256348
1698668567.328419,0.0,4337.692383,4391.153809,4287.179688,4360.128418,4408.589844,4415.0,4425.897461,4473.077148,4421.794922,4370.256348,4421.794922,4171.153809,4420.384766
1698668567.336227,0.0,4332.820313,4395.641113,4274.743652,4355.512695,4406.794922,4419.102539,4430.256348,4475.641113,4425.769043,4370.512695,4414.358887,4162.563965,4423.589844
1698668567.344035,0.0,4339.230957,4387.692383,4282.820313,4356.794922,4403.717773,4414.487305,4428.461426,4472.94873,4421.794922,4371.410156,4417.307617,4167.05127,4420.641113
1698668567.351843,0.0,4335.128418,4390.0,4281.666504,4359.743652,4405.641113,4416.025879,4428.717773,4469.615234,4420.0,4369.487305,4416.794922,4166.666504,4419.102539
1698668567.359651,0.0,4333.077148,4396.153809,4279.230957,4357.179688,4407.563965,4420.897461,4431.666504,4466.922852,4418.846191,4363.717773,4415.384766,4155.641113,4423.717773
1698668567.36746,0.0,4335.641113,4390.897461,4288.205078,4357.94873,4405.641113,4416.025879,4427.94873,4465.641113,4421.922852,4369.487305,4420.897461,4168.589844,4424.487305
1698668567.375268,0.0,4331.282227,4393.717773,4277.179688,4356.922852,4406.794922,4414.358887,4426.922852,4470.384766,4423.077148,4370.384766,4416.282227,4161.794922,4419.102539
1698668567.383076,0.0,4336.153809,4393.717773,4281.025879,4359.230957,4408.205078,4413.846191,4425.897461,4470.641113,4419.487305,4366.666504,4416.922852,4163.589844,4419.743652
1698668567.390884,0.0,4332.563965,4392.563965,4281.538574,4357.307617,4407.820313,4416.153809,4428.846191,4464.615234,4421.153809,4368.589844,4418.077148,4171.153809,4425.0
1698668567.398693,0.0,4330.384766,4390.0,4275.512695,4353.589844,4407.563965,4416.153809,4433.077148,4465.384766,4420.641113,4364.743652,4417.05127,4161.282227,4420.897461
1698668567.406501,0.0,4337.563965,4387.307617,4285.897461,4358.846191,4407.820313,4413.461426,4427.179688,4468.205078,4421.410156,4366.538574,4423.846191,4171.538574,4416.410156
1698668567.414309,0.0,4333.974121,4395.256348,4281.794922,4358.077148,4407.692383,4417.436035,4428.846191,4466.025879,4421.025879,4371.153809,4420.128418,4165.256348,4420.256348
1698668567.422117,0.0,4335.641113,4390.128418,4282.307617,4355.641113,4405.0,4413.974121,4431.025879,4469.230957,4417.436035,4370.0,4416.153809,4161.153809,4422.307617
1698668567.429926,0.0,4335.384766,4389.102539,4278.589844,4356.410156,4403.461426,4410.512695,4427.692383,4472.94873,4422.94873,4372.05127,4418.077148,4168.974121,4421.410156
1698668567.437734,0.0,4332.436035,4395.769043,4271.666504,4357.820313,4405.897461,4414.743652,4428.333496,4470.256348,4422.820313,4369.871582,4417.563965,4160.641113,4419.871582
1698668567.445542,0.0,4336.922852,4391.538574,4283.974121,4362.692383,4407.820313,4413.589844,4427.05127,4466.922852,4419.487305,4367.307617,4419.615234,4171.025879,4419.358887
1698668567.45335,0.0,4331.666504,4393.077148,4276.666504,4360.641113,4406.666504,4416.538574,4427.563965,4466.666504,4421.922852,4367.179688,4415.384766,4167.436035,4423.077148
1698668567.461158,0.0,4334.487305,4390.384766,4276.666504,4358.974121,4405.512695,4418.205078,4426.666504,4467.94873,4419.615234,4368.205078,4416.922852,4159.871582,4423.461426
1698668567.468967,0.0,4338.333496,4388.333496,4286.922852,4360.256348,4408.205078,4416.666504,4428.846191,4468.589844,4421.410156,4372.05127,4420.512695,4169.743652,4422.563965
1698668567.476775,0.0,4331.153809,4391.666504,4277.94873,4354.358887,4408.333496,4416.282227,4434.615234,4468.205078,4422.436035,4369.743652,4414.230957,4161.282227,4421.794922
1698668567.484583,0.0,4336.410156,4389.743652,4279.743652,4357.436035,4403.205078,4413.077148,4426.538574,4467.436035,4420.512695,4370.384766,4418.333496,4169.358887,4421.922852
1698668567.492391,0.0,4337.179688,4393.846191,4277.05127,4359.230957,4403.974121,4418.333496,4424.743652,4468.461426,4420.897461,4372.179688,4419.487305,4170.384766,4425.769043
1698668567.500199,0.0,4336.922852,4392.820313,4277.436035,4356.666504,4407.692383,4416.282227,4432.307617,4466.538574,4418.205078,4366.282227,4417.05127,4161.282227,4423.333496
1698668567.508008,0.0,4336.922852,4388.974121,4282.94873,4360.384766,4406.025879,4407.692383,4430.641113,4460.769043,4421.153809,4369.102539,4418.333496,4172.436035,4418.333496
1698668567.515816,0.0,4331.153809,4393.846191,4275.128418,4358.846191,4404.871582,4414.871582,4430.512695,4463.205078,4423.333496,4370.769043,4412.692383,4164.871582,4417.436035
1698668567.523624,0.0,4336.282227,4392.05127,4282.307617,4360.128418,4406.282227,4417.692383,4428.974121,4469.358887,4420.128418,4370.0,4418.205078,4165.769043,4418.461426
1698668567.531432,0.0,4334.358887,4392.692383,4279.230957,4359.102539,4407.436035,4415.384766,4427.820313,4467.692383,4422.692383,4374.615234,4421.282227,4167.563965,4422.05127
1698668567.53924,0.0,4333.333496,4395.897461,4273.974121,4355.256348,4405.641113,4415.384766,4430.128418,4465.0,4421.922852,4372.05127,4417.05127,4160.384766,4422.307617
1698668567.547049,0.0,4337.05127,4391.153809,4281.153809,4359.615234,4403.974121,4414.743652,4429.230957,4467.05127,4420.897461,4368.846191,4421.666504,4173.461426,4420.256348
1698668567.554857,0.0,4331.410156,4389.230957,4273.077148,4357.436035,4405.769043,4418.461426,4431.025879,4467.820313,4422.179688,4368.333496,4417.563965,4164.102539,4419.102539
1698668567.562665,0.0,4335.256348,4388.717773,4283.461426,4357.307617,4405.769043,4416.282227,4429.487305,4467.94873,4421.025879,4368.077148,4418.333496,4159.871582,4420.384766
1698668567.570473,0.0,4334.230957,4393.974121,4285.0,4358.846191,4403.333496,4413.846191,4427.94873,4468.846191,4424.230957,4370.769043,4422.94873,4168.717773,4424.615234
1698668567.578282,0.0,4331.666504,4396.410156,4272.436035,4356.410156,4403.589844,4418.461426,4428.077148,4467.820313,4420.0,4368.974121,4419.743652,4161.410156,4422.05127
1698668567.58609,0.0,4337.94873,4390.769043,4282.307617,4359.487305,4405.0,4416.794922,4425.769043,4463.974121,4415.512695,4369.743652,4419.743652,4171.282227,4418.974121
1698668567.593898,0.0,4333.717773,4395.128418,4276.794922,4357.179688,4407.179688,4414.102539,4429.487305,4464.487305,4418.589844,4369.743652,4415.769043,4163.846191,4422.94873
1698668567.601706,0.0,4334.102539,4389.615234,4274.487305,4356.153809,4408.717773,4413.077148,4429.230957,4464.871582,4418.461426,4367.820313,4417.820313,4157.05127,4423.461426
1698668567.609515,0.0,4335.128418,4387.563965,4278.077148,4356.922852,4407.05127,4415.641113,4426.153809,4460.512695,4421.025879,4370.769043,4420.769043,4169.230957,4422.436035
1698668567.617323,0.0,4333.974121,4395.641113,4273.589844,4353.205078,4404.743652,4417.692383,4430.769043,4462.436035,4420.384766,4369.871582,4416.538574,4161.538574,4421.922852
1698668567.625131,0.0,4338.846191,4391.922852,4284.230957,4359.358887,4404.487305,4412.05127,4428.333496,4467.179688,4418.846191,4371.794922,4418.589844,4165.641113,4419.743652
1698668567.632939,0.0,4330.769043,4392.563965,4279.871582,4359.230957,4405.384766,4416.153809,4427.307617,4466.794922,4421.025879,4371.538574,4415.128418,4163.333496,4422.436035
1698668567.640747,0.0,4331.922852,4389.615234,4275.512695,4355.512695,4403.846191,4418.717773,4430.641113,4466.538574,4418.589844,4366.538574,4416.153809,4161.025879,4424.102539
1698668567.648556,0.0,4338.077148,4388.846191,4281.282227,4361.666504,4404.230957,4412.436035,4428.461426,4466.666504,4419.615234,4370.641113,4420.256348,4173.589844,4423.205078
1698668567.656364,0.0,4332.563965,4394.102539,4279.230957,4360.769043,4407.820313,4413.717773,4429.487305,4464.358887,4421.794922,4370.0,4416.025879,4157.94873,4422.692383
1698668567.664172,0.0,4336.922852,4388.846191,4284.487305,4357.563965,4406.153809,4413.717773,4427.820313,4463.077148,4421.666504,4367.563965,4421.794922,4160.769043,4420.256348
1698668567.67198,0.0,4336.025879,4389.102539,4275.256348,4357.820313,4404.871582,4416.794922,4427.820313,4466.025879,4418.974121,4369.358887,4421.282227,4167.307617,4420.641113
1698668567.679788,0.0,4335.0,4389.487305,4275.641113,4360.769043,4404.102539,4418.589844,4431.025879,4469.615234,4413.461426,4367.05127,4415.641113,4157.436035,4422.820313
1698668567.687597,0.0,4335.897461,4391.922852,4287.307617,4362.436035,4402.436035,4414.487305,4428.589844,4468.974121,4419.743652,4367.94873,4420.256348,4167.05127,4422.94873
1698668567.695405,0.0,4330.897461,4396.410156,4274.487305,4354.743652,4405.0,4416.794922,4428.461426,4468.974121,4422.563965,4365.641113,4418.333496,4157.436035,4421.282227
1698668567.703213,0.0,4335.641113,4390.641113,4280.256348,4356.538574,4406.153809,4416.282227,4426.538574,4465.897461,4414.615234,4365.769043,4420.512695,4153.846191,4423.077148
1698668567.711021,0.0,4331.538574,4391.922852,4281.794922,4359.487305,4405.512695,4417.307617,4427.307617,4461.922852,4416.410156,4371.025879,4420.641113,4159.230957,4425.897461
1698668567.71883,0.0,4331.153809,4394.871582,4278.974121,4356.538574,4407.05127,4417.05127,4429.358887,4464.487305,4415.897461,4366.538574,4416.025879,4157.692383,4421.794922
1698668567.726638,0.0,4340.512695,4391.410156,4290.641113,4361.922852,4406.666504,4411.410156,4425.897461,4463.717773,4414.230957,4367.94873,4419.487305,4175.384766,4424.743652
1698668567.734446,0.0,4332.05127,4391.538574,4276.153809,4357.820313,4405.769043,4415.641113,4429.487305,4461.410156,4416.794922,4371.282227,4415.128418,4166.666504,4428.077148
1698668567.742254,0.0,4330.512695,4388.077148,4276.153809,4355.0,4407.436035,4414.743652,4428.974121,4466.025879,4417.179688,4368.205078,4416.282227,4161.794922,4422.436035
1698668567.750063,0.0,4333.846191,4391.794922,4282.94873,4360.128418,4406.538574,4412.563965,4427.05127,4471.538574,4421.794922,4369.358887,4419.615234,4173.205078,4421.025879
1698668567.757871,0.0,4334.102539,4395.897461,4277.563965,4359.358887,4405.256348,4415.0,4429.743652,4471.153809,4421.794922,4366.922852,4416.153809,4161.794922,4422.179688
1698668567.765679,0.0,4339.487305,4388.205078,4284.230957,4360.769043,4407.05127,4413.717773,4426.410156,4464.615234,4421.025879,4367.05127,4421.282227,4165.641113,4423.589844
1698668567.773487,0.0,4334.230957,4392.436035,4274.102539,4357.692383,4407.179688,4415.0,4430.641113,4463.077148,4421.282227,4370.384766,4418.717773,4163.077148,4423.846191
1698668567.781295,0.0,4333.846191,4393.333496,4276.025879,4356.153809,4404.743652,4410.128418,4433.974121,4465.512695,4417.179688,4366.794922,4417.94873,4165.128418,4420.512695
1698668567.789104,0.0,4333.974121,4389.230957,4285.512695,4358.717773,4406.025879,4410.128418,4428.333496,4463.974121,4421.666504,4367.179688,4421.666504,4179.230957,4424.615234
1698668567.796912,0.0,4331.794922,4391.153809,4276.025879,4355.512695,4409.358887,4419.230957,4428.589844,4463.974121,4422.94873,4369.487305,4416.410156,4162.179688,4426.025879
1698668567.80472,0.0,4338.717773,4387.307617,4279.102539,4357.692383,4406.538574,4415.897461,4428.461426,4464.615234,4417.94873,4369.102539,4417.820313,4164.615234,4418.461426
1698668567.812528,0.0,4335.128418,4393.461426,4277.05127,4357.692383,4406.025879,4414.871582,4431.538574,4463.589844,4419.615234,4366.153809,4416.410156,4167.179688,4420.0
1698668567.820336,0.0,4334.358887,4394.230957,4278.461426,4356.922852,4407.563965,4417.820313,4432.563965,4465.128418,4418.077148,4365.0,4415.769043,4157.307617,4424.871582
1698668567.828145,0.0,4335.0,4389.230957,4283.717773,4358.333496,4404.871582,4415.512695,4426.538574,4466.410156,4418.717773,4371.153809,4418.461426,4168.461426,4423.205078
1698668567.835953,0.0,4330.769043,4394.487305,4277.692383,4354.358887,4406.410156,4417.820313,4429.102539,4465.769043,4419.487305,4369.102539,4414.230957,4160.256348,4422.94873
1698668567.843761,0.0,4337.94873,4392.563965,4287.05127,4357.05127,4408.846191,4419.615234,4427.692383,4466.794922,4416.282227,4365.641113,4419.102539,4159.358887,4424.358887
1698668567.851569,0.0,4333.077148,4392.05127,4282.94873,4356.410156,4406.410156,4419.102539,4425.128418,4470.0,4417.820313,4366.794922,4420.769043,4162.692383,4426.538574
1698668567.859378,0.0,4331.666504,4391.410156,4279.487305,4352.563965,4404.743652,4418.077148,4429.743652,4469.487305,4417.307617,4364.230957,4416.922852,4159.487305,4423.846191
1698668567.867186,0.0,4336.666504,4391.410156,4288.333496,4356.538574,4406.282227,4417.820313,4429.871582,4463.461426,4420.384766,4369.102539,4420.128418,4175.641113,4421.410156
1698668567.874994,0.0,4325.0,4396.282227,4271.666504,4354.871582,4406.538574,4420.641113,4429.358887,4462.179688,4421.282227,4369.743652,4418.077148,4159.743652,4424.743652
1698668567.882802,0.0,4328.717773,4392.820313,4273.974121,4357.94873,4405.128418,4414.615234,4425.0,4466.538574,4414.615234,4366.410156,4420.256348,4150.128418,4423.717773
1698668567.89061,0.0,4336.282227,4394.487305,4282.94873,4361.666504,4406.538574,4416.025879,4426.922852,4468.717773,4415.0,4370.384766,4420.256348,4163.461426,4420.384766
1698668567.898419,0.0,4334.487305,4392.94873,4275.769043,4357.436035,4405.128418,4420.256348,4433.717773,4466.666504,4414.871582,4367.307617,4416.666504,4157.692383,4421.153809
1698668567.906227,0.0,4337.436035,4385.769043,4277.563965,4360.641113,4403.589844,4413.205078,4427.820313,4465.128418,4416.794922,4366.025879,4421.794922,4163.974121,4424.615234
1698668567.914035,0.0,4332.94873,4391.153809,4271.538574,4360.384766,4406.538574,4416.282227,4426.410156,4465.384766,4418.077148,4368.205078,4418.205078,4162.436035,4425.512695
1698668567.921843,0.0,4334.358887,4391.794922,4278.589844,4358.974121,4406.538574,4416.153809,4427.94873,4465.512695,4412.436035,4366.922852,4418.589844,4163.974121,4421.666504
1698668567.929652,0.0,4333.846191,4390.512695,4279.743652,4360.384766,4406.025879,4411.282227,4426.794922,4467.94873,4416.153809,4368.461426,4422.94873,4171.922852,4421.922852
1698668567.93746,0.0,4332.820313,4392.436035,4268.333496,4356.410156,4408.717773,4415.641113,4428.461426,4465.256348,4418.974121,4364.358887,4418.589844,4157.563965,4422.94873
1698668567.945268,0.0,4340.641113,4387.563965,4282.05127,4358.974121,4409.102539,4414.487305,4425.256348,4456.922852,4419.102539,4365.256348,4419.487305,4165.128418,4423.589844
1698668567.953076,0.0,4332.563965,4392.179688,4277.820313,4358.077148,4407.94873,4414.743652,4426.794922,4458.333496,4422.436035,4370.256348,4415.128418,4164.615234,4424.102539
1698668567.960884,0.0,4332.307617,4393.333496,4276.025879,4357.820313,4406.410156,4416.282227,4430.641113,4466.410156,4419.743652,4368.333496,4416.538574,4159.487305,4422.307617
1698668567.968693,0.0,4341.410156,4386.922852,4286.153809,4358.461426,4404.743652,4416.922852,4428.974121,4464.102539,4421.153809,4370.128418,4423.077148,4172.820313,4423.974121
1698668567.976501,0.0,4336.922852,4389.743652,4277.436035,4351.025879,4404.487305,4417.307617,4426.922852,4461.153809,4421.666504,4365.897461,4417.436035,4160.897461,4425.128418
1698668567.984309,0.0,4335.512695,4389.871582,4280.128418,4355.256348,4404.487305,4412.179688,4424.102539,4465.128418,4418.717773,4362.94873,4422.05127,4162.436035,4422.692383
1698668567.992117,0.0,4331.794922,4394.743652,4275.897461,4359.487305,4405.897461,4415.0,4428.846191,4466.794922,4421.282227,4368.205078,4421.538574,4165.256348,4423.333496
1698668567.999925,0.0,4333.846191,4393.333496,4274.871582,4358.461426,4408.974121,4414.487305,4428.589844,4461.666504,4419.743652,4368.077148,4415.897461,4157.05127,4425.384766
1698668568.007734,0.0,4335.897461,4386.153809,4281.025879,4361.153809,4408.461426,4410.128418,4423.333496,4458.077148,4419.743652,4370.384766,4420.897461,4170.0,4426.025879
1698668568.015542,0.0,4331.282227,4391.153809,4271.153809,4357.179688,4407.05127,4417.820313,4432.05127,4463.717773,4421.153809,4369.230957,4416.794922,4161.538574,4425.641113
1698668568.02335,0.0,4338.589844,4390.384766,4281.666504,4358.589844,4406.538574,4416.410156,4431.794922,4463.589844,4419.358887,4367.05127,4415.384766,4162.05127,4424.487305
1698668568.031158,0.0,4335.256348,4393.589844,4281.794922,4360.769043,4406.153809,4413.974121,4424.102539,4459.102539,4420.256348,4370.256348,4417.179688,4168.589844,4425.897461
1698668568.038967,0.0,4332.692383,4392.820313,4273.974121,4355.512695,4405.897461,4415.256348,4427.692383,4463.974121,4415.641113,4366.922852,4417.692383,4159.230957,4425.128418
1698668568.046775,0.0,4342.05127,4384.102539,4281.538574,4353.461426,4405.0,4411.794922,4428.589844,4470.128418,4417.179688,4368.461426,4420.0,4172.820313,4422.820313
1698668568.054583,0.0,4337.05127,4389.615234,4272.05127,4353.077148,4403.846191,4415.769043,4431.666504,4469.102539,4420.0,4369.487305,4414.358887,4165.897461,4425.641113
1698668568.062391,0.0,4334.743652,4389.743652,4280.128418,4358.589844,4403.077148,4417.05127,4432.05127,4465.128418,4413.589844,4364.487305,4421.666504,4160.128418,4426.666504
1698668568.070199,0.0,4331.666504,4388.974121,4285.256348,4360.384766,4404.487305,4415.256348,4427.94873,4465.769043,4419.871582,4368.717773,4424.358887,4170.128418,4423.846191
1698668568.078008,0.0,4331.153809,4392.692383,4275.641113,4355.0,4404.743652,4419.102539,4430.256348,4466.922852,4422.94873,4369.358887,4414.230957,4160.0,4421.922852
1698668568.085816,0.0,4338.461426,4389.102539,4285.384766,4360.897461,4403.846191,4418.205078,4427.94873,4465.256348,4418.077148,4367.05127,4420.256348,4167.563965,4424.230957
